wavelength,alpha(m=0),alpha(m=1)
400,325.03,444.07
401,199.51,294.67
402,122.25,203.64
403,68.95,141.49
404,29.26,95.71
405,-1.98,60.06
406,-27.63,31.14
407,-49.45,6.86
408,-68.51,-14.06
409,-85.57,-32.53
410,-101.14,-49.15
411,-115.62,-64.35
412,-129.36,-78.45
413,-142.62,-91.74
414,-155.79,-104.37
415,-169.46,-116.51
416,-185.35,-128.32
417,-214.12,-139.90
494,2948.63,2184.65
445.3055,NaN,NaN
400.5,253.64,358.88
401.5,156.87,244.32
402.5,93.43,169.96
403.5,47.80,117.04
404.5,12.80,76.88
405.5,-15.38,44.92
406.5,-38.94,18.51
407.5,-59.27,-3.95
408.5,-77.24,-23.57
409.5,-93.51,-41.04
410.5,-108.50,-56.90
411.5,-122.58,-71.52
412.5,-136.03,-85.18
413.5,-149.20,-98.11
414.5,-162.51,-110.49
415.5,-176.90,-122.45
416.5,-196.11,-134.13
417.05,-216.94,-140.47
417.1,-220.16,-141.05
417.15,-223.84,-141.61
417.2,-228.12,-142.20
417.25,-233.21,-142.76
417.3,-239.39,-143.33
417.35,-247.11,-143.91
417.4,-257.08,-144.49
417.45,-270.60,-145.05
417.5,-290.11,-145.63
417.55,-321.04,-146.20
417.6,-378.01,-146.77
417.65,-519.77,-147.35
417.68,-790.34,-147.68
417.7,-1515.16,-147.91
417.705,-2088.64,-147.97
417.706,-2268.59,-147.98
417.707,-2486.25,-147.99
417.708,-2754.85,-148.00
417.709,-3094.64,-148.01
417.71,-3538.26,-148.02
417.711,-4141.88,-148.04
417.712,,-148.06
417.713,,-148.06
417.714,,-148.07
417.715,,-148.09
417.716,,-148.10
417.717,,-148.11
417.718,,-148.12
417.719,,-148.13
417.72,,-148.14
417.721,4725.89,-148.15
417.722,3824.46,-148.17
417.723,3202.32,-148.17
417.724,2747.09,-148.18
417.725,2399.55,-148.20
417.726,2125.49,-148.21
417.727,1903.89,-148.23
417.732,1225.96,-148.28
417.74,742.42,-148.37
417.75,463.15,-148.49
417.777,170.41,-148.79
417.827,5.85,-149.37
417.877,-56.49,-149.94
417.927,-89.46,-150.51
417.977,-109.98,-151.08
418.027,-124.07,-151.64
418.077,-134.40,-152.22
418.127,-142.34,-152.78
418.177,-148.67,-153.35
418.227,-153.87,-153.93
418.277,-158.22,-154.50
418.327,-161.97,-155.07
418.377,-165.21,-155.64
418.427,-168.09,-156.21
418.927,-186.18,-161.91
419.427,-196.79,-167.63
419.927,-205.02,-173.37
420.427,-212.20,-179.14
420.927,-218.79,-184.98
421.427,-225.06,-190.86
421.927,-231.14,-196.82
422.427,-237.10,-202.87
422.927,-242.97,-209.04
423.427,-248.80,-215.32
423.927,-254.62,-221.74
424.427,-260.42,-228.32
424.927,-266.24,-235.10
425.427,-272.10,-242.10
425.927,-278.00,-249.35
426.427,-283.97,-256.91
426.447,-284.22,-257.22
426.467,-284.44,-257.53
426.487,-284.69,-257.84
426.507,-284.94,-258.15
426.527,-285.17,-258.47
426.547,-285.42,-258.78
426.567,-285.67,-259.09
426.587,-285.90,-259.41
426.607,-286.16,-259.73
426.627,-286.39,-260.05
426.647,-286.64,-260.36
426.667,-286.90,-260.68
426.687,-287.14,-261.01
426.707,-287.40,-261.33
426.727,-287.64,-261.66
426.747,-287.90,-261.98
426.767,-288.14,-262.31
426.787,-288.41,-262.64
426.807,-288.68,-262.97
426.827,-288.93,-263.31
426.847,-289.21,-263.65
426.867,-289.50,-264.00
426.887,-289.78,-264.37
426.907,-290.09,-264.74
426.927,-290.44,-265.15
426.947,-290.85,-265.59
426.967,-291.39,-266.13
426.987,-292.29,-266.94
427.007,-295.52,-269.51
427.0172,-335.67,-299.70
427.0173,-339.76,-302.77
427.0174,-344.68,-306.46
427.0175,-350.69,-310.97
427.0176,-358.23,-316.62
427.0177,-367.94,-323.90
427.0178,-380.92,-333.64
427.0179,-399.16,-347.32
427.018,-426.67,-367.96
427.0181,-472.97,-402.68
427.0182,-567.18,-473.34
427.0183,-863.63,-695.69
427.0183925,NaN,NaN
427.0183955,NaN,NaN
427.0185,208.56,108.45
427.0186,-32.97,-72.69
427.0187,-117.06,-135.75
427.0188,-159.80,-167.81
427.0189,-185.69,-187.22
427.019,-203.03,-200.24
427.0191,-215.48,-209.57
427.0192,-224.84,-216.59
427.0193,-232.12,-222.07
427.0194,-237.97,-226.45
427.0195,-242.76,-230.04
427.0395,-288.69,-264.63
427.0595,-290.15,-265.88
427.0795,-290.82,-266.52
427.0995,-291.28,-267.01
427.1195,-291.65,-267.44
427.1395,-291.98,-267.83
427.1595,-292.29,-268.20
427.1795,-292.57,-268.57
427.1995,-292.84,-268.93
427.2195,-293.13,-269.28
427.2395,-293.39,-269.63
427.2595,-293.65,-269.98
427.2795,-293.91,-270.33
427.2995,-294.16,-270.67
427.3195,-294.42,-271.02
427.3395,-294.67,-271.36
427.3595,-294.92,-271.70
427.3795,-295.18,-272.05
427.3995,-295.43,-272.39
427.4195,-295.68,-272.73
427.4395,-295.93,-273.07
427.4595,-296.19,-273.42
427.4795,-296.44,-273.76
427.4995,-296.67,-274.11
427.5195,-296.92,-274.45
427.5395,-297.18,-274.80
427.5595,-297.43,-275.14
427.5795,-297.66,-275.49
427.5995,-297.92,-275.84
428.0995,-304.11,-284.76
428.5995,-310.35,-294.24
429.0995,-316.68,-304.41
429.5995,-323.10,-315.42
430.0995,-329.65,-327.46
430.5995,-336.29,-340.82
431.0995,-343.09,-355.84
431.5995,-350.02,-373.06
432.0995,-357.12,-393.24
432.5995,-364.39,-417.55
433.0995,-371.86,-447.91
433.5995,-379.57,-487.66
434.0995,-387.52,-543.16
434.5995,-395.75,-628.31
435.0995,-404.34,-780.21
435.5995,-413.31,-1142.94
435.67,-414.60,-1240.14
435.74,-415.90,-1360.93
435.81,-417.22,-1516.45
435.88,-418.54,-1724.35
435.95,-419.87,-2016.59
436.02,-421.21,-2457.91
436.09,-422.56,-3202.00
436.16,-423.94,-4724.47
436.295,,NaN
436.305,,NaN
436.47,-430.13,3056.59
436.54,-431.57,2101.72
436.61,-433.01,1569.10
436.68,-434.49,1229.19
436.75,-435.95,993.31
436.82,-437.45,819.94
436.89,-438.97,687.08
436.96,-440.50,581.96
437.46,-451.99,194.93
437.96,-464.73,36.42
438.46,-479.33,-51.98
438.96,-497.03,-109.79
439.46,-519.23,-151.58
439.96,-551.57,-184.01
440.46,-609.58,-210.52
440.96,-782.65,-233.14
440.99,-806.17,-234.40
441.02,-833.46,-235.65
441.05,-865.54,-236.89
441.08,-903.77,-238.13
441.11,-950.18,-239.36
441.14,-1007.76,-240.57
441.17,-1081.18,-241.78
441.2,-1178.06,-242.99
441.23,-1311.97,-244.18
441.26,-1509.29,-245.36
441.29,-1829.38,-246.55
441.32,-2439.39,-247.71
441.35,-4061.46,-248.88
441.359,,-249.23
441.362,,-249.34
441.365,,-249.46
441.368,,-249.58
441.371,,-249.69
441.374,,-249.81
441.377,,-249.92
441.38,,-250.04
441.383,,-250.15
441.386,,-250.27
441.389,,-250.39
441.392,,-250.50
441.395,,-250.62
441.398,,-250.73
441.401,,-250.84
441.404,,-250.95
441.407,,-251.07
441.41,4921.11,-251.19
441.413,4317.10,-251.30
441.416,3834.40,-251.42
441.419,3439.79,-251.53
441.449,1564.67,-252.67
441.479,900.59,-253.81
441.509,560.49,-254.94
441.539,353.65,-256.07
441.569,214.45,-257.18
441.599,114.34,-258.29
441.629,38.78,-259.39
441.659,-20.28,-260.49
441.689,-67.78,-261.58
441.719,-106.82,-262.67
441.749,-139.52,-263.75
441.779,-167.31,-264.84
441.809,-191.27,-265.91
442.309,-367.46,-283.19
442.809,-428.18,-299.69
443.309,-464.66,-316.10
443.809,-493.67,-333.38
444.309,-523.35,-354.00
444.809,-571.41,-389.82
444.849,-578.12,-394.88
444.889,-585.86,-400.73
444.929,-594.97,-407.59
444.969,-605.96,-415.85
445.009,-619.55,-426.08
445.049,-636.99,-439.20
445.089,-660.39,-456.81
445.129,-693.88,-481.96
445.169,-746.25,-521.31
445.209,-841.19,-592.55
445.249,-1069.46,-763.82
445.274,-1507.69,-1092.52
445.278,-1652.39,-1201.07
445.282,-1846.96,-1346.98
445.286,-2122.47,-1553.64
445.29,-2542.86,-1868.94
445.294,-3263.19,-2409.18
445.298,-4782.67,-3548.80
445.307,NaN,NaN
445.312,3995.32,3034.66
445.316,2319.42,1777.74
445.32,1549.94,1200.62
445.324,1108.00,869.17
445.328,821.16,654.03
445.332,619.95,503.10
445.336,470.96,391.37
445.34,356.21,305.30
445.344,265.11,236.97
445.348,191.02,181.39
445.388,-156.79,-79.54
445.428,-278.77,-171.10
445.468,-341.40,-218.13
445.508,-379.78,-247.00
445.548,-405.93,-266.67
445.588,-424.99,-281.05
445.628,-439.62,-292.11
445.668,-451.29,-300.93
445.708,-460.87,-308.20
445.748,-468.92,-314.33
445.788,-475.84,-319.60
446.288,-522.61,-355.84
446.788,-547.34,-375.68
447.288,-566.69,-391.55
447.788,-584.00,-405.89
448.288,-600.38,-419.54
448.788,-616.38,-432.90
449.288,-632.28,-446.13
449.788,-648.25,-459.40
450.288,-664.39,-472.78
450.788,-680.84,-486.35
451.288,-697.65,-500.16
451.788,-714.89,-514.25
452.288,-732.60,-528.69
453.1,-762.54,-552.99
453.6,-781.79,-568.55
454.1,-801.74,-584.60
454.6,-822.44,-601.22
455.1,-843.93,-618.45
455.6,-866.33,-636.35
456.1,-889.68,-654.96
456.6,-914.05,-674.38
457.1,-939.58,-694.66
457.6,-966.32,-715.88
458.1,-994.41,-738.15
458.6,-1023.95,-761.54
459.1,-1055.09,-786.20
459.6,-1087.99,-812.23
460.1,-1122.86,-839.78
460.19,-1129.35,-844.92
460.28,-1135.91,-850.10
460.37,-1142.54,-855.35
460.46,-1149.26,-860.66
460.48,-1150.77,-861.84
460.53,-1154.53,-864.82
460.58,-1158.34,-867.82
460.63,-1162.14,-870.84
460.68,-1165.99,-873.88
460.73,-1169.85,-876.93
460.78,-1173.76,-880.00
460.83,-1177.67,-883.10
460.89,-1182.40,-886.84
460.94,-1186.37,-889.97
460.99,-1190.37,-893.13
461.04,-1194.39,-896.31
461.09,-1198.44,-899.52
461.14,-1202.52,-902.73
461.19,-1206.61,-905.98
461.24,-1210.74,-909.24
461.29,-1214.90,-912.53
461.34,-1219.10,-915.83
461.39,-1223.31,-919.17
461.48,-1230.97,-925.21
461.57,-1238.72,-931.34
461.66,-1246.57,-937.54
461.75,-1254.51,-943.83
462.25,-1300.56,-980.22
462.75,-1350.13,-1019.41
463.25,-1403.73,-1061.79
463.75,-1461.96,-1107.84
464.25,-1525.55,-1158.14
464.75,-1595.43,-1213.44
465.25,-1672.76,-1274.63
465.75,-1759.01,-1342.91
466.6,-1932.08,-1479.83
467.1,-2054.35,-1576.48
467.6,-2197.18,-1689.25
468.1,-2367.33,-1823.31
468.6,-2575.13,-1986.62
469.1,-2842.79,-2196.02
469.6,-3181.16,-2459.90
470.1,-3659.95,-2830.90
470.6,-4386.92,-3390.26
471.1,,-4357.10
472.36,NaN,NaN
472.41499999999996,NaN,NaN
473.07,,4190.67
473.16,,3534.35
473.25,4336.68,3006.39
473.75,2081.42,1261.25
474.25,964.60,353.29
474.75,264.91,-265.91
475.25,-241.14,-778.11
475.75,-646.64,-1270.10
476.25,-998.55,-1821.75
476.75,-1324.52,-2539.97
477.25,-1643.38,-3661.12
478.565,,NaN
478.58,,NaN
479.87,-3846.99,2837.67
480.37,-4565.32,1712.93
480.87,,1008.84
481.37,,490.46
481.87,,61.33
482.37,,-328.90
482.87,,-713.39
482.93,,-760.48
482.99,,-807.94
483.05,,-855.82
483.11,,-904.16
483.14,,-928.52
483.17,,-953.02
483.2,,-977.67
483.23,,-1002.46
483.26,,-1027.40
483.29,,-1052.51
483.32,,-1077.79
483.37,,-1120.33
483.4,,-1146.09
483.43,,-1172.06
483.46,,-1198.23
483.49,,-1224.61
483.52,,-1251.21
483.55,,-1278.04
483.58,,-1305.11
483.61,,-1332.42
483.64,,-1359.98
483.67,,-1387.81
483.73,,-1444.29
483.79,,-1501.93
483.85,,-1560.81
483.91,,-1621.01
484.41,,-2187.59
484.91,4524.13,-2926.79
485.41,1678.84,-3976.61
487.38,NaN,NaN
487.405,NaN,NaN
487.62,,2484.61
487.63,,-1227.71
487.745,,NaN
487.755,,NaN
490.05,,4870.30
490.55,,4159.71
491.05,4567.58,3646.16
491.55,4157.38,3256.36
492.05,3824.25,2949.48
492.55,3547.25,2700.95
493.05,3312.48,2495.04
493.55,3110.07,2321.04
493.6,3091.30,2305.06
493.65,3072.76,2289.31
493.7,3054.45,2273.79
493.75,3036.35,2258.48
493.8,3018.47,2243.36
493.85,3000.76,2228.44
493.9,2983.24,2213.68
493.95,2965.87,2199.10
494.05,2931.49,2170.30
494.1,2914.38,2156.04
494.15,2897.25,2141.79
494.2,2879.97,2127.45
494.25,2862.25,2112.85
494.3,2843.66,2097.59
494.35,2822.91,2080.77
494.4,2792.84,2057.00
494.45,2733.76,2011.48
494.4764,2440.86,1791.18
494.4773,2389.49,1752.65
494.4782,2321.45,1701.59
494.4791,2226.95,1630.70
494.48,2086.77,1525.53
494.4809,1857.05,1353.23
494.4818,1411.40,1018.97
494.4827,174.16,91.03
494.4837,NaN,NaN
494.483795,NaN,NaN
494.4847,,4084.92
494.4856,4213.03,3120.10
494.4865,3757.21,2778.22
494.4874,3523.79,2603.12
494.4883,3381.84,2496.66
494.4892,3286.40,2425.04
494.4901,3217.75,2373.55
494.491,3166.01,2334.71
494.4919,3125.59,2304.37
494.4928,3093.11,2279.99
494.5,2961.47,2181.11
494.52,2865.52,2108.68
494.5428,2830.57,2081.95
494.5928,2795.49,2054.52
494.6428,2773.55,2036.99
494.6928,2755.44,2022.36
494.7428,2739.05,2009.03
494.7928,2723.62,1996.45
494.8428,2708.80,1984.36
494.8928,2694.43,1972.63
494.9428,2680.41,1961.19
494.9928,2666.68,1949.98
495.0428,2653.20,1938.99
495.0928,2639.95,1928.17
495.1428,2626.89,1917.54
495.1928,2614.01,1907.06
495.2428,2601.32,1896.74
495.2928,2588.77,1886.56
495.3428,2576.41,1876.51
495.3928,2564.19,1866.60
495.8928,2449.32,1773.93
496.3928,2345.89,1691.26
496.8928,2252.01,1616.82
497.3928,2166.31,1549.36
497.8928,2087.72,1487.90
498.3928,2015.32,1431.61
498.8928,1948.41,1379.85
499.3928,1886.34,1332.06
499.8928,1828.59,1287.78
500.3928,1774.69,1246.63
500.8928,1724.29,1208.26
501.3928,1677.05,1172.39
501.8928,1632.63,1138.77
502.3928,1590.82,1107.19
502.8928,1551.37,1077.46
503.3928,1514.09,1049.39
503.8928,1478.79,1022.88
504.3928,1445.31,997.77
504.8928,1413.52,973.96
505.3928,1383.29,951.32
505.8928,1354.51,929.80
506.3928,1327.06,909.28
506.8928,1300.86,889.71
507.3928,1275.81,871.02
507.8928,1251.86,853.13
508.3928,1228.90,836.02
508.8928,1206.91,819.61
509.3928,1185.82,803.86
509.8928,1165.54,788.74
510.3928,1146.07,774.19
510.8928,1127.31,760.20
511.3928,1109.27,746.72
511.8928,1091.89,733.72
512.3928,1075.13,721.19
512.8928,1058.95,709.09
513.3928,1043.34,697.41
513.8928,1028.25,686.10
514.3928,1013.66,675.17
514.8928,999.56,664.58
515.3928,985.91,654.32
515.8928,972.68,644.39
516.3928,959.86,634.75
516.8928,947.44,625.39
517.3928,935.41,616.30
517.8928,923.71,607.48
518.3928,912.36,598.89
518.8928,901.35,590.55
519.3928,890.62,582.43
519.8928,880.22,574.52
520.3928,870.09,566.82
520.8928,860.25,559.32
521.3928,850.66,552.01
521.8928,841.31,544.88
522.3928,832.22,537.92
522.8928,823.36,531.13
523.3928,814.72,524.50
523.8928,806.29,518.02
524.3928,798.10,511.69
524.8928,790.08,505.50
525.3928,782.24,499.46
525.8928,774.61,493.54
526.3928,767.16,487.74
526.8928,759.88,482.08
527.3928,752.74,476.53
527.8928,745.80,471.09
528.3928,738.98,465.77
528.8928,732.34,460.54
529.3928,725.82,455.43
529.8928,719.45,450.41
530.3928,713.22,445.47
530.8928,707.13,440.64
531.3928,701.15,435.89
531.8928,695.30,431.24
532.3928,689.56,426.67
532.8928,683.95,422.17
533.3928,678.43,417.76
533.8928,673.04,413.42
534.3928,667.75,409.15
534.8928,662.57,404.96
535.3928,657.48,400.83
535.8928,652.49,396.77
536.3928,647.59,392.77
536.8928,642.79,388.84
537.3928,638.07,384.96
537.8928,633.43,381.16
538.3928,628.89,377.40
538.8928,624.41,373.70
539.3928,620.02,370.06
539.8928,615.73,366.46
540.3928,611.47,362.92
540.8928,607.32,359.43
541.3928,603.24,355.98
541.8928,599.21,352.58
542.3928,595.25,349.22
542.8928,591.35,345.92
543.3928,587.54,342.65
543.8928,583.78,339.43
544.3928,580.08,336.24
544.8928,576.43,333.10
545.3928,572.84,329.99
545.8928,569.32,326.92
546.3928,565.84,323.89
546.8928,562.43,320.90
547.3928,559.07,317.93
547.8928,555.75,315.00
548.3928,552.49,312.10
548.8928,549.27,309.24
549.3928,546.10,306.40
549.8928,542.99,303.59
550.3928,539.92,300.82
550.8928,536.88,298.08
551.3928,533.89,295.36
551.8928,530.96,292.67
552.3928,528.05,290.00
552.8928,525.20,287.36
553.3928,522.37,284.74
553.8928,519.60,282.15
554.3928,516.85,279.58
554.8928,514.16,277.04
555.3928,511.48,274.51
555.8928,508.86,272.01
556.3928,506.26,269.53
556.8928,503.71,267.07
557.3928,501.18,264.63
557.8928,498.69,262.20
558.3928,496.23,259.80
558.8928,493.79,257.42
559.3928,491.40,255.06
559.8928,489.04,252.70
560.3928,486.71,250.37
560.8928,484.40,248.06
561.3928,482.13,245.76
561.8928,479.87,243.47
562.3928,477.64,241.21
562.8928,475.45,238.96
563.3928,473.29,236.71
563.8928,471.15,234.48
564.3928,469.03,232.27
564.8928,466.95,230.07
565.3928,464.88,227.88
565.8928,462.83,225.71
566.3928,460.82,223.55
566.8928,458.82,221.40
567.3928,456.86,219.26
567.8928,454.91,217.13
568.3928,452.99,215.00
568.8928,451.09,212.89
569.3928,449.20,210.79
569.8928,447.35,208.70
570.3928,445.51,206.62
570.8928,443.70,204.54
571.3928,441.90,202.47
571.8928,440.12,200.42
572.3928,438.36,198.36
572.8928,436.62,196.32
573.3928,434.89,194.29
573.8928,433.19,192.26
574.3928,431.52,190.23
574.8928,429.86,188.21
575.3928,428.21,186.20
575.8928,426.56,184.19
576.3928,424.95,182.19
576.8928,423.35,180.20
577.3928,421.77,178.20
577.8928,420.21,176.22
578.3928,418.67,174.23
578.8928,417.14,172.25
579.3928,415.61,170.27
579.8928,414.11,168.29
580.3928,412.62,166.32
580.8928,411.16,164.35
581.3928,409.70,162.38
581.8928,408.25,160.42
582.3928,406.83,158.46
582.8928,405.41,156.50
583.3928,404.01,154.53
583.8928,402.63,152.58
584.3928,401.24,150.62
584.8928,399.88,148.66
585.3928,398.55,146.70
585.8928,397.20,144.75
586.3928,395.89,142.78
586.8928,394.56,140.82
587.3928,393.26,138.86
587.8928,391.99,136.90
588.3928,390.71,134.93
588.8928,389.44,132.97
589.3928,388.19,131.00
589.8928,386.96,129.02
590.3928,385.72,127.06
590.8928,384.52,125.08
591.3928,383.29,123.10
591.8928,382.11,121.11
592.3928,380.91,119.13
592.8928,379.73,117.14
593.3928,378.57,115.14
593.8928,377.42,113.15
594.3928,376.28,111.14
594.8928,375.14,109.13
595.3928,374.02,107.11
595.8928,372.90,105.09
596.3928,371.80,103.06
596.8928,370.70,101.03
597.3928,369.61,98.98
597.8928,368.53,96.94
598.3928,367.46,94.88
598.8928,366.39,92.82
599.3928,365.34,90.75
599.8928,364.30,88.66
600.3928,363.27,86.58
600.8928,362.22,84.48
601.3928,361.22,82.37
601.8928,360.19,80.26
602.3928,359.20,78.13
602.8928,358.20,75.99
603.3928,357.20,73.85
603.8928,356.23,71.68
604.3928,355.26,69.51
604.8928,354.28,67.33
605.3928,353.32,65.14
605.8928,352.37,62.93
606.3928,351.44,60.71
606.8928,350.49,58.47
607.3928,349.54,56.23
607.8928,348.63,53.97
608.3928,347.70,51.69
608.8928,346.79,49.40
609.3928,345.89,47.09
609.8928,344.98,44.77
610.3928,344.08,42.43
610.8928,343.19,40.07
611.3928,342.29,37.70
611.8928,341.39,35.30
612.3928,340.51,32.89
612.8928,339.64,30.46
613.3928,338.75,28.01
613.8928,337.87,25.54
614.3928,337.00,23.05
614.8928,336.13,20.53
615.3928,335.25,18.00
615.8928,334.35,15.45
616.3928,333.45,12.87
616.8928,332.55,10.26
617.3928,331.61,7.64
617.8928,330.64,4.99
618.3928,329.61,2.31
618.8928,328.52,-0.40
619.3928,327.27,-3.12
619.8928,325.76,-5.89
620.3928,323.61,-8.67
620.8928,319.51,-11.48
620.9328,318.97,-11.72
620.9728,318.36,-11.94
621.0128,317.68,-12.17
621.0528,316.91,-12.40
621.0928,316.03,-12.62
621.1328,315.02,-12.85
621.1728,313.80,-13.08
621.2128,312.37,-13.31
621.2528,310.62,-13.53
621.2928,308.41,-13.76
621.3328,305.60,-13.99
621.3728,301.80,-14.22
621.4128,296.41,-14.45
621.4528,288.12,-14.67
621.4928,273.78,-14.91
621.5328,242.68,-15.14
621.5728,123.38,-15.37
621.585,-31.88,-15.44
621.593,-391.71,-15.48
621.5954,-701.24,-15.50
621.5961,-848.99,-15.50
621.5968,-1046.36,-15.50
621.5975,-1323.38,-15.50
621.5982,-1740.42,-15.51
621.5989,-2439.63,-15.51
621.5996,-3853.66,-15.52
621.6003,,-15.52
621.6008,,-15.53
621.6011,,-15.53
621.6016,,-15.53
621.6023,4628.31,-15.54
621.603,3145.41,-15.54
621.6037,2422.80,-15.54
621.6044,1995.06,-15.54
621.6051,1712.30,-15.55
621.6058,1511.50,-15.56
621.6065,1361.53,-15.56
621.6072,1245.25,-15.56
621.6079,1152.45,-15.57
621.6086,1076.67,-15.57
621.613,802.32,-15.60
621.62,627.30,-15.63
621.63,523.68,-15.69
621.6486,446.65,-15.80
621.6886,391.73,-16.03
621.7286,371.19,-16.26
621.7686,360.43,-16.49
621.8086,353.81,-16.72
621.8486,349.29,-16.95
621.8886,346.02,-17.19
621.9286,343.52,-17.41
621.9686,341.57,-17.65
622.0086,339.99,-17.88
622.0486,338.67,-18.12
622.0886,337.55,-18.34
622.1286,336.62,-18.58
622.1686,335.79,-18.81
622.2086,335.07,-19.05
622.2486,334.42,-19.28
622.2886,333.86,-19.51
622.7886,329.61,-22.44
623.2886,327.45,-25.41
623.7886,325.95,-28.41
624.2886,324.77,-31.45
624.7886,323.71,-34.52
625.2886,322.77,-37.62
625.7886,321.89,-40.78
626.2886,321.05,-43.96
626.7886,320.23,-47.18
627.2886,319.45,-50.45
627.7886,318.69,-53.76
628.2886,317.94,-57.12
628.7886,317.22,-60.51
629.2886,316.48,-63.95
629.7886,315.78,-67.44
630.2886,315.09,-70.98
630.7886,314.38,-74.57
631.2886,313.71,-78.21
631.7886,313.04,-81.91
632.2886,312.36,-85.65
632.7886,311.71,-89.45
633.2886,311.05,-93.32
633.7886,310.40,-97.24
634.2886,309.76,-101.21
634.7886,309.13,-105.26
635.2886,308.50,-109.37
635.7886,307.86,-113.55
636.2886,307.25,-117.79
636.7886,306.62,-122.11
637.2886,306.01,-126.50
637.7886,305.42,-130.96
638.2886,304.81,-135.50
638.7886,304.23,-140.13
639.2886,303.63,-144.84
639.7886,303.04,-149.63
640.2886,302.45,-154.51
640.7886,301.88,-159.49
641.2886,301.30,-164.54
641.7886,300.72,-169.71
642.2886,300.16,-174.98
642.7886,299.60,-180.34
643.2886,299.04,-185.82
643.7886,298.49,-191.41
644.2886,297.94,-197.12
644.7886,297.40,-202.94
645.2886,296.85,-208.89
645.7886,296.30,-214.96
646.2886,295.78,-221.18
646.7886,295.25,-227.53
647.2886,294.71,-234.01
647.7886,294.19,-240.65
648.2886,293.67,-247.44
648.7886,293.16,-254.40
649.2886,292.66,-261.53
649.7886,292.14,-268.83
650.2886,291.63,-276.30
650.7886,291.13,-283.97
651.2886,290.65,-291.83
651.7886,290.15,-299.89
652.2886,289.66,-308.18
652.7886,289.18,-316.67
653.2886,288.69,-325.41
653.7886,288.21,-334.38
654.2886,287.72,-343.60
654.7886,287.26,-353.09
655.2886,286.79,-362.86
655.7886,286.33,-372.92
656.2886,285.88,-383.27
656.7886,285.43,-393.95
657.2886,284.95,-404.96
657.7886,284.51,-416.32
658.2886,284.06,-428.05
658.7886,283.64,-440.17
659.2886,283.19,-452.68
659.7886,282.77,-465.64
660.2886,282.33,-479.04
660.7886,281.91,-492.93
661.2886,281.48,-507.31
661.7886,281.08,-522.23
662.2886,280.66,-537.71
662.7886,280.26,-553.80
663.2886,279.85,-570.50
663.7886,279.46,-587.90
664.2886,279.06,-606.00
664.7886,278.67,-624.87
665.2886,278.28,-644.55
665.7886,277.92,-665.10
666.2886,277.53,-686.58
666.7886,277.17,-709.05
667.2886,276.81,-732.60
667.7886,276.46,-757.28
668.2886,276.10,-783.20
668.7886,275.77,-810.44
669.2886,275.41,-839.12
669.7886,275.09,-869.35
670.2886,274.78,-901.28
670.7886,274.45,-935.03
671.2886,274.16,-970.78
671.7886,273.85,-1008.71
672.2886,273.56,-1049.02
672.7886,273.28,-1091.96
673.2886,273.01,-1137.80
673.7886,272.75,-1186.84
674.2886,272.52,-1239.42
674.7886,272.28,-1295.94
675.2886,272.06,-1356.88
675.7886,271.86,-1422.78
676.2886,271.68,-1494.27
676.7886,271.53,-1572.09
677.2886,271.39,-1657.13
677.7886,271.25,-1750.45
678.2886,271.15,-1853.33
678.7886,270.74,-1967.32
679.2886,271.08,-2094.33
679.7886,271.10,-2236.72
680.2886,271.16,-2397.49
680.7886,271.26,-2580.45
681.2886,271.44,-2790.54
681.7886,271.70,-3034.30
682.2886,272.04,-3320.52
682.7886,272.49,-3661.38
683.2886,273.09,-4074.21
683.7886,273.84,-4584.51
688.02,,NaN
688.05,,NaN
692.37,226.49,4935.92
692.87,230.11,4451.23
693.37,232.71,4057.11
693.87,234.66,3730.32
694.37,236.15,3454.97
694.87,237.30,3219.78
695.37,238.20,3016.56
695.87,238.89,2839.20
696.37,239.44,2683.06
696.87,239.89,2544.52
697.37,240.23,2420.78
697.87,240.49,2309.59
698.37,240.69,2209.11
698.87,240.83,2117.87
699.37,240.92,2034.65
699.87,240.97,1958.44
700.37,241.01,1888.37
700.87,241.00,1823.74
701.37,240.96,1763.94
701.87,240.92,1708.43
702.37,240.84,1656.78
702.87,240.74,1608.59
703.37,240.64,1563.52
703.87,240.53,1521.29
704.37,240.40,1481.62
704.87,240.25,1444.30
705.37,240.10,1409.11
705.87,239.93,1375.88
706.37,239.76,1344.45
706.87,239.60,1314.68
707.37,239.43,1286.43
707.87,239.23,1259.59
708.37,239.03,1234.07
708.87,238.84,1209.76
709.37,238.64,1186.58
709.87,238.43,1164.44
710.37,238.22,1143.29
710.87,238.02,1123.05
711.37,237.82,1103.68
711.87,237.60,1085.10
712.37,237.37,1067.29
712.87,237.15,1050.18
713.37,236.93,1033.73
713.87,236.71,1017.91
714.37,236.49,1002.69
714.87,236.26,988.03
715.37,236.02,973.90
715.87,235.79,960.26
716.37,235.56,947.10
716.87,235.33,934.39
717.37,235.10,922.10
717.87,234.86,910.22
718.37,234.62,898.73
718.87,234.41,887.60
719.37,234.16,876.82
719.87,233.92,866.38
720.37,233.69,856.25
720.87,233.46,846.42
721.37,233.22,836.88
721.87,232.98,827.61
722.37,232.75,818.62
722.87,232.50,809.88
723.37,232.27,801.37
723.87,232.04,793.10
724.37,231.79,785.05
724.87,231.55,777.22
725.37,231.32,769.58
725.87,231.09,762.15
726.37,230.84,754.91
726.87,230.61,747.84
727.37,230.38,740.95
727.87,230.14,734.23
728.37,229.89,727.68
728.87,229.67,721.28
729.37,229.42,715.03
729.87,229.19,708.92
730.37,228.96,702.96
730.87,228.73,697.12
731.37,228.50,691.43
731.87,228.26,685.85
732.37,228.03,680.40
732.87,227.80,675.07
733.37,227.56,669.85
733.87,227.34,664.74
734.37,227.10,659.73
734.87,226.86,654.84
735.37,226.62,650.04
735.87,226.41,645.33
736.37,226.18,640.72
736.87,225.93,636.21
737.37,225.70,631.78
737.87,225.49,627.43
738.37,225.25,623.17
738.87,225.03,618.99
739.37,224.80,614.89
739.87,224.58,610.86
740.37,224.35,606.91
740.87,224.13,603.03
741.37,223.89,599.22
741.87,223.66,595.48
742.37,223.46,591.80
742.87,223.21,588.19
743.37,222.99,584.64
743.87,222.77,581.15
744.37,222.55,577.72
744.87,222.33,574.35
745.37,222.11,571.04
745.87,221.90,567.77
746.37,221.67,564.57
746.87,221.45,561.41
747.37,221.23,558.31
747.87,221.01,555.24
748.37,220.80,552.24
748.87,220.59,549.27
749.37,220.35,546.36
749.87,220.15,543.49
750.37,219.93,540.66
750.87,219.72,537.87
751.37,219.51,535.14
751.87,219.29,532.43
752.37,219.07,529.78
752.87,218.87,527.15
753.37,218.65,524.56
753.87,218.44,522.01
754.37,218.22,519.51
754.87,218.02,517.03
755.37,217.80,514.59
755.87,217.58,512.18
756.37,217.39,509.80
756.87,217.18,507.46
757.37,216.97,505.15
757.87,216.76,502.87
758.37,216.55,500.62
758.87,216.35,498.41
759.37,216.14,496.22
759.87,215.93,494.06
760.37,215.74,491.92
760.87,215.53,489.82
761.37,215.31,487.74
761.87,215.12,485.69
762.37,214.92,483.66
762.87,214.72,481.66
763.37,214.51,479.68
763.87,214.30,477.73
764.37,214.11,475.80
764.87,213.91,473.89
765.37,213.71,472.01
765.87,213.51,470.16
766.37,213.31,468.31
766.87,213.12,466.50
767.37,212.92,464.71
767.87,212.71,462.94
768.37,212.51,461.18
768.87,212.33,459.44
769.37,212.12,457.73
769.87,211.93,456.04
770.37,211.73,454.37
770.87,211.54,452.71
771.37,211.34,451.07
771.87,211.16,449.45
772.37,210.97,447.85
772.87,210.77,446.27
773.37,210.58,444.70
773.87,210.38,443.15
774.37,210.19,441.61
774.87,210.00,440.10
775.37,209.81,438.59
775.87,209.62,437.11
776.37,209.44,435.64
776.87,209.24,434.18
777.37,209.06,432.74
777.87,208.87,431.32
778.37,208.68,429.90
778.87,208.49,428.51
779.37,208.31,427.13
779.87,208.13,425.75
780.37,207.95,424.40
780.87,207.75,423.06
781.37,207.56,421.73
781.87,207.38,420.41
782.37,207.21,419.10
782.87,207.03,417.81
783.37,206.84,416.54
783.87,206.65,415.27
784.37,206.47,414.01
784.87,206.29,412.78
785.37,206.10,411.54
785.87,205.93,410.32
786.37,205.74,409.11
786.87,205.57,407.92
787.37,205.40,406.73
787.87,205.21,405.55
788.37,205.04,404.39
788.87,204.87,403.23
789.37,204.68,402.08
789.87,204.51,400.95
790.37,204.32,399.83
790.87,204.16,398.71
791.37,203.98,397.60
791.87,203.80,396.52
792.37,203.63,395.42
792.87,203.46,394.35
793.37,203.27,393.29
793.87,203.10,392.22
794.37,202.93,391.18
794.87,202.76,390.14
795.37,202.59,389.10
795.87,202.41,388.08
796.37,202.24,387.07
796.87,202.07,386.06
797.37,201.91,385.06
797.87,201.73,384.07
798.37,201.56,383.09
798.87,201.39,382.11
799.37,201.21,381.15
799.87,201.06,380.19
800.37,200.88,379.23
800.87,200.72,378.29
801.37,200.54,377.36
801.87,200.38,376.42
802.37,200.21,375.50
802.87,200.05,374.59
803.37,199.89,373.68
803.87,199.71,372.78
804.37,199.54,371.89
804.87,199.38,371.01
805.37,199.21,370.12
805.87,199.06,369.25
806.37,198.88,368.38
806.87,198.74,367.52
807.37,198.57,366.66
807.87,198.41,365.81
808.37,198.24,364.98
808.87,198.08,364.13
809.37,197.92,363.31
809.87,197.75,362.48
810.37,197.60,361.67
810.87,197.44,360.85
811.37,197.27,360.05
811.87,197.10,359.25
812.37,196.96,358.45
812.87,196.80,357.66
813.37,196.64,356.87
813.87,196.47,356.10
814.37,196.32,355.32
814.87,196.16,354.56
815.37,196.00,353.80
815.87,195.84,353.04
816.37,195.69,352.29
816.87,195.54,351.54
817.37,195.37,350.80
817.87,195.23,350.06
818.37,195.07,349.33
818.87,194.91,348.60
819.37,194.76,347.88
819.87,194.61,347.16
820.37,194.44,346.45
820.87,194.30,345.74
821.37,194.14,345.04
821.87,193.98,344.34
822.37,193.83,343.65
822.87,193.67,342.95
823.37,193.53,342.27
823.87,193.38,341.58
824.37,193.22,340.91
824.87,193.08,340.23
825.37,192.92,339.56
825.87,192.77,338.90
826.37,192.62,338.24
826.87,192.47,337.58
827.37,192.33,336.93
827.87,192.17,336.29
828.37,192.03,335.64
828.87,191.87,335.00
829.37,191.72,334.37
829.87,191.56,333.73
830.37,191.44,333.10
830.87,191.27,332.48
831.37,191.13,331.86
831.87,190.99,331.24
832.37,190.83,330.63
832.87,190.69,330.01
833.37,190.54,329.41
833.87,190.41,328.80
834.37,190.26,328.20
834.87,190.11,327.60
835.37,189.97,327.01
835.87,189.81,326.43
836.37,189.67,325.84
836.87,189.53,325.25
837.37,189.38,324.68
837.87,189.24,324.09
838.37,189.09,323.52
838.87,188.95,322.96
839.37,188.80,322.39
839.87,188.66,321.83
840.37,188.52,321.27
840.87,188.38,320.71
841.37,188.24,320.15
841.87,188.11,319.60
842.37,187.95,319.05
842.87,187.82,318.50
843.37,187.67,317.96
843.87,187.53,317.43
844.37,187.40,316.88
844.87,187.26,316.35
845.37,187.12,315.82
845.87,186.98,315.29
846.37,186.84,314.76
846.87,186.69,314.25
847.37,186.56,313.73
847.87,186.43,313.21
848.37,186.28,312.70
848.87,186.15,312.18
849.37,186.00,311.67
849.87,185.86,311.17
850.37,185.74,310.66
850.87,185.60,310.16
851.37,185.46,309.66
851.87,185.32,309.16
852.37,185.19,308.67
852.87,185.06,308.18
853.37,184.90,307.69
853.87,184.78,307.21
854.37,184.65,306.72
854.87,184.50,306.24
855.37,184.38,305.76
855.87,184.23,305.28
856.37,184.11,304.80
856.87,183.97,304.33
857.37,183.83,303.86
857.87,183.70,303.40
858.37,183.56,302.93
858.87,183.43,302.47
859.37,183.30,302.01
859.87,183.17,301.55
860.37,183.04,301.09
860.87,182.91,300.63
861.37,182.77,300.19
861.87,182.64,299.73
862.37,182.50,299.29
862.87,182.38,298.84
863.37,182.24,298.40
863.87,182.12,297.95
864.37,181.98,297.51
864.87,181.85,297.08
865.37,181.73,296.63
865.87,181.60,296.20
866.37,181.47,295.77
866.87,181.34,295.34
867.37,181.21,294.91
867.87,181.08,294.48
868.37,180.94,294.07
868.87,180.81,293.64
869.37,180.69,293.22
869.87,180.57,292.80
870.37,180.43,292.39
870.87,180.31,291.97
871.37,180.17,291.56
871.87,180.05,291.14
872.37,179.92,290.74
872.87,179.80,290.32
873.37,179.67,289.92
873.87,179.54,289.52
874.37,179.41,289.12
874.87,179.28,288.72
875.37,179.17,288.31
875.87,179.04,287.91
876.37,178.92,287.52
876.87,178.79,287.12
877.37,178.67,286.73
877.87,178.53,286.35
878.37,178.40,285.95
878.87,178.28,285.56
879.37,178.17,285.18
879.87,178.03,284.80
880.37,177.91,284.41
880.87,177.80,284.03
881.37,177.66,283.65
881.87,177.55,283.27
882.37,177.42,282.90
882.87,177.28,282.52
883.37,177.17,282.14
883.87,177.04,281.77
884.37,176.92,281.41
884.87,176.81,281.03
885.37,176.68,280.66
885.87,176.56,280.30
886.37,176.43,279.93
886.87,176.31,279.57
887.37,176.19,279.21
887.87,176.07,278.85
888.37,175.95,278.49
888.87,175.83,278.13
889.37,175.71,277.77
889.87,175.57,277.42
890.37,175.46,277.07
890.87,175.34,276.71
891.37,175.23,276.36
891.87,175.10,276.02
892.37,174.98,275.66
892.87,174.85,275.32
893.37,174.74,274.97
893.87,174.63,274.62
894.37,174.50,274.28
894.87,174.38,273.95
895.37,174.27,273.60
895.87,174.14,273.26
896.37,174.02,272.93
896.87,173.91,272.58
897.37,173.79,272.25
897.87,173.67,271.92
898.37,173.55,271.59
898.87,173.45,271.25
899.37,173.33,270.92
899.87,173.21,270.59
900.37,173.09,270.26
900.87,172.97,269.93
901.37,172.86,269.61
901.87,172.74,269.28
902.37,172.63,268.96
902.87,172.49,268.64
903.37,172.38,268.32
903.87,172.27,268.00
904.37,172.16,267.68
904.87,172.04,267.35
905.37,171.91,267.04
905.87,171.81,266.73
906.37,171.70,266.41
906.87,171.57,266.10
907.37,171.46,265.78
907.87,171.34,265.48
908.37,171.23,265.16
908.87,171.11,264.86
909.37,171.00,264.54
909.87,170.88,264.24
910.37,170.78,263.93
910.87,170.65,263.62
911.37,170.53,263.32
911.87,170.43,263.01
912.37,170.31,262.71
912.87,170.20,262.42
913.37,170.10,262.11
913.87,169.98,261.81
914.37,169.86,261.51
914.87,169.75,261.22
915.37,169.63,260.92
915.87,169.52,260.63
916.37,169.40,260.33
916.87,169.29,260.04
917.37,169.18,259.75
917.87,169.07,259.46
918.37,168.95,259.16
918.87,168.84,258.87
919.37,168.73,258.58
919.87,168.62,258.29
920.37,168.52,258.01
920.87,168.41,257.72
921.37,168.30,257.43
921.87,168.17,257.15
922.37,168.07,256.87
922.87,167.96,256.58
923.37,167.86,256.30
923.87,167.73,256.02
924.37,167.63,255.74
924.87,167.53,255.46
925.37,167.40,255.18
925.87,167.30,254.90
926.37,167.18,254.63
926.87,167.08,254.35
927.37,166.96,254.08
927.87,166.86,253.80
928.37,166.74,253.53
928.87,166.64,253.25
929.37,166.53,252.99
929.87,166.43,252.71
930.37,166.31,252.44
930.87,166.20,252.18
931.37,166.10,251.90
931.87,165.99,251.64
932.37,165.87,251.37
932.87,165.76,251.11
933.37,165.67,250.84
933.87,165.55,250.57
934.37,165.44,250.31
934.87,165.33,250.05
935.37,165.22,249.79
935.87,165.13,249.52
936.37,165.02,249.26
936.87,164.91,249.00
937.37,164.80,248.74
937.87,164.69,248.48
938.37,164.58,248.22
938.87,164.48,247.97
939.37,164.37,247.71
939.87,164.26,247.45
940.37,164.16,247.20
940.87,164.05,246.94
941.37,163.95,246.69
941.87,163.84,246.43
942.37,163.74,246.18
942.87,163.62,245.94
943.37,163.52,245.69
943.87,163.41,245.43
944.37,163.31,245.18
944.87,163.21,244.93
945.37,163.09,244.69
945.87,162.99,244.44
946.37,162.89,244.19
946.87,162.79,243.94
947.37,162.67,243.70
947.87,162.57,243.45
948.37,162.47,243.20
948.87,162.36,242.97
949.37,162.26,242.72
949.87,162.14,242.48
950.37,162.05,242.24
950.87,161.95,241.99
951.37,161.84,241.76
951.87,161.74,241.51
952.37,161.63,241.28
952.87,161.53,241.03
953.37,161.42,240.80
953.87,161.33,240.56
954.37,161.21,240.32
954.87,161.10,240.09
955.37,161.01,239.85
955.87,160.90,239.62
956.37,160.81,239.38
956.87,160.70,239.15
957.37,160.59,238.92
957.87,160.50,238.68
958.37,160.39,238.45
958.87,160.28,238.22
959.37,160.17,237.99
959.87,160.08,237.75
960.37,159.98,237.53
960.87,159.87,237.30
961.37,159.76,237.07
961.87,159.68,236.84
962.37,159.57,236.61
962.87,159.47,236.39
963.37,159.36,236.16
963.87,159.26,235.94
964.37,159.15,235.71
964.87,159.07,235.48
965.37,158.96,235.25
965.87,158.86,235.03
966.37,158.76,234.81
966.87,158.65,234.58
967.37,158.55,234.36
967.87,158.45,234.14
968.37,158.35,233.92
968.87,158.25,233.70
969.37,158.15,233.48
969.87,158.05,233.26
970.37,157.95,233.04
970.87,157.85,232.82
971.37,157.75,232.60
971.87,157.65,232.38
972.37,157.53,232.17
972.87,157.43,231.95
973.37,157.34,231.74
973.87,157.24,231.52
974.37,157.14,231.30
974.87,157.05,231.09
975.37,156.95,230.87
975.87,156.83,230.66
976.37,156.74,230.45
976.87,156.64,230.23
977.37,156.55,230.02
977.87,156.43,229.81
978.37,156.34,229.60
978.87,156.24,229.38
979.37,156.15,229.17
979.87,156.04,228.97
980.37,155.94,228.75
980.87,155.85,228.54
981.37,155.74,228.34
981.87,155.65,228.13
982.37,155.56,227.92
982.87,155.44,227.71
983.37,155.35,227.50
983.87,155.24,227.30
984.37,155.15,227.09
984.87,155.06,226.88
985.37,154.95,226.68
985.87,154.86,226.47
986.37,154.75,226.27
986.87,154.66,226.06
987.37,154.56,225.87
987.87,154.47,225.66
988.37,154.36,225.46
988.87,154.27,225.25
989.37,154.16,225.05
989.87,154.08,224.85
990.37,153.97,224.65
990.87,153.88,224.44
991.37,153.78,224.25
991.87,153.67,224.05
992.37,153.59,223.85
992.87,153.48,223.65
993.37,153.40,223.45
993.87,153.29,223.25
994.37,153.19,223.06
994.87,153.10,222.85
995.37,153.00,222.66
995.87,152.89,222.46
996.37,152.81,222.26
996.87,152.71,222.07
997.37,152.61,221.88
997.87,152.52,221.67
998.37,152.42,221.48
998.87,152.32,221.29
999.37,152.22,221.10
999.87,152.14,220.90
1000.37,152.03,220.70
1000.87,151.93,220.51
1001.37,151.83,220.32
1001.87,151.75,220.12
1002.37,151.65,219.93
1002.87,151.55,219.74
1003.37,151.45,219.55
1003.87,151.35,219.36
1004.37,151.25,219.17
1004.87,151.18,218.98
1005.37,151.08,218.79
1005.87,150.98,218.60
1006.37,150.88,218.41
1006.87,150.78,218.22
1007.37,150.68,218.03
1007.87,150.59,217.85
1008.37,150.49,217.66
1008.87,150.39,217.47
1009.37,150.30,217.29
1009.87,150.20,217.10
1010.37,150.12,216.90
1010.87,150.03,216.72
1011.37,149.93,216.53
1011.87,149.84,216.35
1012.37,149.74,216.16
1012.87,149.65,215.98
1013.37,149.55,215.79
1013.87,149.46,215.61
1014.37,149.36,215.42
1014.87,149.25,215.25
1015.37,149.16,215.07
1015.87,149.06,214.88
1016.37,148.97,214.70
1016.87,148.88,214.52
1017.37,148.78,214.33
1017.87,148.69,214.15
1018.37,148.60,213.97
1018.87,148.51,213.79
1019.37,148.41,213.60
1019.87,148.32,213.42
1020.37,148.23,213.24
1020.87,148.12,213.07
1021.37,148.03,212.89
1021.87,147.94,212.71
1022.37,147.85,212.53
1022.87,147.75,212.34
1023.37,147.66,212.16
1023.87,147.55,211.99
1024.37,147.46,211.81
1024.87,147.37,211.63
1025.37,147.29,211.46
1025.87,147.20,211.28
1026.37,147.09,211.11
1026.87,147.00,210.93
1027.37,146.91,210.75
1027.87,146.82,210.57
1028.37,146.71,210.40
1028.87,146.62,210.22
1029.37,146.54,210.05
1029.87,146.43,209.88
1030.37,146.34,209.70
1030.87,146.25,209.52
1031.37,146.17,209.35
1031.87,146.06,209.18
1032.37,145.97,209.00
1032.87,145.89,208.83
1033.37,145.78,208.66
1033.87,145.69,208.48
1034.37,145.61,208.31
1034.87,145.50,208.14
1035.37,145.42,207.97
1035.87,145.31,207.80
1036.37,145.23,207.63
1036.87,145.14,207.45
1037.37,145.04,207.29
1037.87,144.95,207.11
1038.37,144.87,206.94
1038.87,144.76,206.77
1039.37,144.68,206.60
1039.87,144.58,206.44
1040.37,144.49,206.26
1040.87,144.39,206.10
1041.37,144.30,205.92
1041.87,144.20,205.76
1042.37,144.12,205.59
1042.87,144.04,205.42
1043.37,143.93,205.25
1043.87,143.85,205.08
1044.37,143.75,204.92
1044.87,143.67,204.75
1045.37,143.56,204.58
1045.87,143.48,204.41
1046.37,143.38,204.25
1046.87,143.30,204.08
1047.37,143.20,203.92
1047.87,143.10,203.76
1048.37,143.01,203.58
1048.87,142.91,203.42
1049.37,142.83,203.25
1049.87,142.73,203.09
1050.37,142.65,202.92
1050.87,142.55,202.76
1051.37,142.47,202.59
1051.87,142.37,202.43
1052.37,142.27,202.27
1052.87,142.19,202.10
1053.37,142.09,201.94
1053.87,142.01,201.77
1054.37,141.91,201.61
1054.87,141.82,201.46
1055.37,141.74,201.29
1055.87,141.64,201.13
1056.37,141.54,200.97
1056.87,141.46,200.80
1057.37,141.36,200.64
1057.87,141.27,200.49
1058.37,141.19,200.32
1058.87,141.09,200.16
1059.37,140.99,200.00
1059.87,140.91,199.83
1060.37,140.82,199.68
1060.87,140.72,199.52
1061.37,140.64,199.35
1061.87,140.55,199.20
1062.37,140.45,199.04
1062.87,140.37,198.87
1063.37,140.28,198.72
1063.87,140.18,198.56
1064.37,140.08,198.40
1064.87,140.01,198.24
1065.37,139.91,198.08
1065.87,139.82,197.93
1066.37,139.72,197.77
1066.87,139.64,197.60
1067.37,139.55,197.45
1067.87,139.45,197.29
1068.37,139.36,197.14
1068.87,139.28,196.97
1069.37,139.19,196.82
1069.87,139.09,196.66
1070.37,139.00,196.51
1070.87,138.91,196.36
1071.37,138.83,196.19
1071.87,138.74,196.04
1072.37,138.64,195.88
1072.87,138.55,195.73
1073.37,138.46,195.58
1073.87,138.36,195.42
1074.37,138.29,195.26
1074.87,138.19,195.10
1075.37,138.10,194.95
1075.87,138.01,194.80
1076.37,137.92,194.65
1076.87,137.82,194.49
1077.37,137.73,194.34
1077.87,137.66,194.18
1078.37,137.56,194.02
1078.87,137.47,193.87
1079.37,137.38,193.72
1079.87,137.29,193.57
1080.37,137.19,193.41
1080.87,137.10,193.26
1081.37,137.01,193.11
1081.87,136.92,192.96
1082.37,136.83,192.81
1082.87,136.76,192.65
1083.37,136.66,192.49
1083.87,136.57,192.34
1084.37,136.48,192.19
1084.87,136.39,192.04
1085.37,136.30,191.89
1085.87,136.21,191.74
1086.37,136.12,191.59
1086.87,136.03,191.44
1087.37,135.94,191.29
1087.87,135.85,191.14
1088.37,135.76,190.99
1088.87,135.67,190.84
1089.37,135.58,190.69
1089.87,135.49,190.54
1090.37,135.40,190.39
1090.87,135.31,190.24
1091.37,135.22,190.09
1091.87,135.13,189.94
1092.37,135.04,189.79
1092.87,134.95,189.64
1093.37,134.86,189.49
1093.87,134.77,189.34
1094.37,134.68,189.19
1094.87,134.59,189.04
1095.37,134.50,188.89
1095.87,134.42,188.75
1096.37,134.33,188.60
1096.87,134.24,188.45
1097.37,134.15,188.30
1097.87,134.06,188.15
1098.37,133.97,188.00
1098.87,133.89,187.86
1099.37,133.80,187.71
1099.87,133.69,187.57
1100.37,133.60,187.42
1100.87,133.51,187.27
1101.37,133.43,187.13
1101.87,133.34,186.98
1102.37,133.25,186.83
1102.87,133.16,186.68
1103.37,133.08,186.54
1103.87,132.99,186.39
1104.37,132.90,186.24
1104.87,132.80,186.11
1105.37,132.71,185.96
1105.87,132.62,185.81
1106.37,132.54,185.67
1106.87,132.45,185.52
1107.37,132.36,185.37
1107.87,132.28,185.23
1108.37,132.19,185.08
1108.87,132.08,184.94
1109.37,132.00,184.80
1109.87,131.91,184.65
1110.37,131.82,184.50
1110.87,131.74,184.36
1111.37,131.65,184.21
1111.87,131.55,184.08
1112.37,131.46,183.93
1112.87,131.38,183.79
1113.37,131.29,183.64
1113.87,131.21,183.50
1114.37,131.12,183.35
1114.87,131.01,183.21
1115.37,130.93,183.07
1115.87,130.84,182.92
1116.37,130.76,182.78
1116.87,130.67,182.63
1117.37,130.57,182.50
1117.87,130.48,182.35
1118.37,130.40,182.21
1118.87,130.32,182.07
1119.37,130.21,181.93
1119.87,130.13,181.79
1120.37,130.04,181.64
1120.87,129.96,181.50
1121.37,129.87,181.35
1121.87,129.77,181.22
1122.37,129.69,181.08
1122.87,129.60,180.93
1123.37,129.52,180.79
1123.87,129.41,180.65
1124.37,129.33,180.51
1124.87,129.25,180.37
1125.37,129.16,180.22
1125.87,129.06,180.09
1126.37,128.98,179.95
1126.87,128.89,179.80
1127.37,128.79,179.67
1127.87,128.71,179.53
1128.37,128.62,179.38
1128.87,128.54,179.24
1129.37,128.44,179.11
1129.87,128.35,178.96
1130.37,128.27,178.82
1130.87,128.17,178.69
1131.37,128.08,178.54
1131.87,128.00,178.40
1132.37,127.90,178.27
1132.87,127.82,178.13
1133.37,127.73,177.98
1133.87,127.65,177.84
1134.37,127.55,177.71
1134.87,127.47,177.57
1135.37,127.38,177.42
1135.87,127.28,177.29
1136.37,127.20,177.15
1136.87,127.12,177.01
1137.37,127.02,176.88
1137.87,126.93,176.73
1138.37,126.83,176.60
1138.87,126.75,176.46
1139.37,126.67,176.32
1139.87,126.57,176.19
1140.37,126.48,176.04
1140.87,126.40,175.90
1141.37,126.30,175.77
1141.87,126.22,175.63
1142.37,126.14,175.49
1142.87,126.04,175.36
1143.37,125.96,175.22
1143.87,125.85,175.08
1144.37,125.77,174.94
1144.87,125.69,174.80
1145.37,125.59,174.67
1145.87,125.51,174.53
1146.37,125.41,174.40
1146.87,125.33,174.26
1147.37,125.25,174.12
1147.87,125.15,173.99
1148.37,125.07,173.85
1148.87,124.96,173.71
1149.37,124.88,173.57
1149.87,124.80,173.43
1150.37,124.70,173.30
1150.87,124.62,173.16
1151.37,124.52,173.03
1151.87,124.44,172.89
1152.37,124.36,172.75
1152.87,124.26,172.62
1153.37,124.18,172.48
1153.87,124.08,172.35
1154.37,124.00,172.21
1154.87,123.90,172.08
1155.37,123.82,171.94
1155.87,123.72,171.81
1156.37,123.64,171.67
1156.87,123.56,171.53
1157.37,123.46,171.40
1157.87,123.38,171.26
1158.37,123.28,171.13
1158.87,123.20,170.99
1159.37,123.10,170.86
1159.87,123.02,170.72
1160.37,122.92,170.59
1160.87,122.84,170.45
1161.37,122.74,170.32
1161.87,122.66,170.18
1162.37,122.56,170.05
1162.87,122.48,169.91
1163.37,122.39,169.79
1163.87,122.31,169.65
1164.37,122.21,169.52
1164.87,122.13,169.38
1165.37,122.03,169.25
1165.87,121.95,169.11
1166.37,121.85,168.98
1166.87,121.77,168.84
1167.37,121.67,168.71
1167.87,121.59,168.57
1168.37,121.49,168.44
1168.87,121.42,168.31
1169.37,121.32,168.18
1169.87,121.24,168.04
1170.37,121.14,167.91
1170.87,121.06,167.77
1171.37,120.96,167.64
1171.87,120.88,167.50
1172.37,120.78,167.37
1172.87,120.71,167.24
1173.37,120.61,167.11
1173.87,120.53,166.97
1174.37,120.43,166.84
1174.87,120.33,166.71
1175.37,120.25,166.57
1175.87,120.16,166.45
1176.37,120.08,166.31
1176.87,119.98,166.18
1177.37,119.90,166.04
1177.87,119.80,165.91
1178.37,119.72,165.77
1178.87,119.63,165.65
1179.37,119.53,165.52
1179.87,119.45,165.38
1180.37,119.35,165.25
1180.87,119.27,165.11
1181.37,119.18,164.99
1181.87,119.10,164.85
1182.37,119.00,164.72
1182.87,118.90,164.59
1183.37,118.82,164.45
1183.87,118.73,164.33
1184.37,118.65,164.19
1184.87,118.55,164.06
1185.37,118.47,163.92
1185.87,118.38,163.80
1186.37,118.28,163.67
1186.87,118.20,163.53
1187.37,118.10,163.40
1187.87,118.03,163.27
1188.37,117.93,163.14
1188.87,117.83,163.01
1189.37,117.75,162.87
1189.87,117.66,162.75
1190.37,117.56,162.62
1190.87,117.48,162.48
1191.37,117.38,162.35
1191.87,117.31,162.22
1192.37,117.21,162.09
1192.87,117.11,161.96
1193.37,117.03,161.82
1193.87,116.94,161.70
1194.37,116.86,161.56
1194.87,116.76,161.43
1195.37,116.66,161.30
1195.87,116.59,161.17
1196.37,116.49,161.04
1196.87,116.39,160.91
1197.37,116.32,160.78
1197.87,116.22,160.65
1198.37,116.12,160.52
1198.87,116.04,160.38
1199.37,115.95,160.26
1199.87,115.85,160.13
1200.37,115.77,159.99
1200.87,115.68,159.87
1201.37,115.58,159.74
1201.87,115.50,159.60
1202.37,115.41,159.48
1202.87,115.33,159.34
1203.37,115.23,159.21
1203.87,115.14,159.09
1204.37,115.06,158.95
1204.87,114.96,158.82
1205.37,114.87,158.70
1205.87,114.77,158.57
1206.37,114.69,158.43
1206.87,114.59,158.30
1207.37,114.50,158.18
1207.87,114.42,158.04
1208.37,114.32,157.91
1208.87,114.23,157.79
1209.37,114.15,157.65
1209.87,114.05,157.52
1210.37,113.96,157.40
1210.87,113.88,157.26
1211.37,113.79,157.14
1211.87,113.69,157.01
1212.37,113.61,156.87
1212.87,113.52,156.75
1213.37,113.42,156.62
1213.87,113.32,156.49
1214.37,113.25,156.36
1214.87,113.15,156.23
1215.37,113.05,156.10
1215.87,112.98,155.97
1216.37,112.88,155.84
1216.87,112.78,155.71
1217.37,112.71,155.58
1217.87,112.61,155.45
1218.37,112.51,155.32
1218.87,112.42,155.20
1219.37,112.34,155.06
1219.87,112.25,154.94
1220.37,112.15,154.81
1220.87,112.05,154.68
1221.37,111.98,154.55
1221.87,111.88,154.42
1222.37,111.78,154.29
1222.87,111.71,154.16
1223.37,111.61,154.03
1223.87,111.51,153.90
1224.37,111.42,153.78
1224.87,111.34,153.64
1225.37,111.25,153.52
1225.87,111.15,153.39
1226.37,111.05,153.26
1226.87,110.98,153.13
1227.37,110.88,153.00
1227.87,110.78,152.87
1228.37,110.69,152.75
1228.87,110.61,152.61
1229.37,110.52,152.49
1229.87,110.42,152.36
1230.37,110.32,152.23
1230.87,110.25,152.10
1231.37,110.15,151.97
1231.87,110.05,151.84
1232.37,109.96,151.72
1232.87,109.88,151.58
1233.37,109.79,151.46
1233.87,109.69,151.33
1234.37,109.59,151.20
1234.87,109.50,151.08
1235.37,109.42,150.94
1235.87,109.33,150.82
1236.37,109.23,150.69
1236.87,109.13,150.56
1237.37,109.06,150.43
1237.87,108.96,150.30
1238.37,108.86,150.17
1238.87,108.77,150.05
1239.37,108.67,149.92
1239.87,108.60,149.79
1240.37,108.50,149.66
1240.87,108.40,149.53
1241.37,108.31,149.41
1241.87,108.23,149.27
1242.37,108.14,149.15
1242.87,108.04,149.02
1243.37,107.94,148.89
1243.87,107.85,148.77
1244.37,107.77,148.63
1244.87,107.68,148.51
1245.37,107.58,148.38
1245.87,107.48,148.25
1246.37,107.39,148.13
1246.87,107.31,147.99
1247.37,107.21,147.86
1247.87,107.12,147.74
1248.37,107.02,147.61
1248.87,106.93,147.49
1249.37,106.83,147.36
1249.87,106.75,147.22
1250.37,106.66,147.10
1250.87,106.56,146.97
1251.37,106.47,146.85
1251.87,106.37,146.72
1252.37,106.29,146.58
1252.87,106.20,146.46
1253.37,106.10,146.33
1253.87,106.00,146.20
1254.37,105.91,146.08
1254.87,105.81,145.95
1255.37,105.74,145.82
1255.87,105.64,145.69
1256.37,105.54,145.56
1256.87,105.45,145.44
1257.37,105.35,145.31
1257.87,105.25,145.18
1258.37,105.18,145.05
1258.87,105.08,144.92
1259.37,104.99,144.80
1259.87,104.89,144.67
1260.37,104.79,144.54
1260.87,104.70,144.42
1261.37,104.62,144.28
1261.87,104.52,144.15
1262.37,104.43,144.03
1262.87,104.33,143.90
1263.37,104.24,143.78
1263.87,104.14,143.65
1264.37,104.04,143.52
1264.87,103.97,143.39
1265.37,103.87,143.26
1265.87,103.77,143.13
1266.37,103.68,143.01
1266.87,103.58,142.88
1267.37,103.48,142.75
1267.87,103.39,142.63
1268.37,103.31,142.49
1268.87,103.22,142.37
1269.37,103.12,142.24
1269.87,103.02,142.11
1270.37,102.93,141.99
1270.87,102.83,141.86
1271.37,102.73,141.73
1271.87,102.66,141.60
1272.37,102.56,141.47
1272.87,102.46,141.34
1273.37,102.37,141.22
1273.87,102.27,141.09
1274.37,102.17,140.96
1274.87,102.08,140.84
1275.37,101.98,140.71
1275.87,101.90,140.57
1276.37,101.81,140.45
1276.87,101.71,140.32
1277.37,101.61,140.19
1277.87,101.52,140.07
1278.37,101.42,139.94
1278.87,101.32,139.81
1279.37,101.23,139.69
1279.87,101.13,139.56
1280.37,101.05,139.42
1280.87,100.96,139.30
1281.37,100.86,139.17
1281.87,100.76,139.04
1282.37,100.67,138.92
1282.87,100.57,138.79
1283.37,100.47,138.66
1283.87,100.38,138.54
1284.37,100.28,138.41
1284.87,100.20,138.27
1285.37,100.11,138.15
1285.87,100.01,138.02
1286.37,99.91,137.89
1286.87,99.81,137.76
1287.37,99.72,137.64
1287.87,99.62,137.51
1288.37,99.52,137.38
1288.87,99.43,137.26
1289.37,99.33,137.13
1289.87,99.25,136.99
1290.37,99.16,136.87
1290.87,99.06,136.74
1291.37,98.96,136.61
1291.87,98.86,136.48
1292.37,98.77,136.36
1292.87,98.67,136.23
1293.37,98.57,136.10
1293.87,98.47,135.97
1294.37,98.38,135.85
1294.87,98.28,135.72
1295.37,98.18,135.59
1295.87,98.11,135.46
1296.37,98.01,135.33
1296.87,97.91,135.20
1297.37,97.81,135.07
1297.87,97.72,134.95
1298.37,97.62,134.82
1298.87,97.52,134.69
1299.37,97.42,134.56
1299.87,97.33,134.44
1300.37,97.23,134.31
1300.87,97.13,134.18
1301.37,97.03,134.05
1301.87,96.94,133.93
1302.37,96.84,133.80
1302.87,96.76,133.66
1303.37,96.66,133.53
1303.87,96.56,133.40
1304.37,96.47,133.28
1304.87,96.37,133.15
1305.37,96.27,133.02
1305.87,96.17,132.89
1306.37,96.08,132.77
1306.87,95.98,132.64
1307.37,95.88,132.51
1307.87,95.78,132.38
1308.37,95.68,132.25
1308.87,95.59,132.13
1309.37,95.49,132.00
1309.87,95.39,131.87
1310.37,95.29,131.74
1310.87,95.19,131.61
1311.37,95.12,131.48
1311.87,95.02,131.35
1312.37,94.92,131.22
1312.87,94.82,131.09
1313.37,94.72,130.96
1313.87,94.63,130.84
1314.37,94.53,130.71
1314.87,94.43,130.58
1315.37,94.33,130.45
1315.87,94.23,130.32
1316.37,94.13,130.19
1316.87,94.03,130.06
1317.37,93.94,129.94
1317.87,93.84,129.81
1318.37,93.74,129.68
1318.87,93.64,129.55
1319.37,93.54,129.42
1319.87,93.44,129.29
1320.37,93.34,129.16
1320.87,93.25,129.04
1321.37,93.15,128.91
1321.87,93.05,128.78
1322.37,92.95,128.65
1322.87,92.85,128.52
1323.37,92.75,128.39
1323.87,92.67,128.25
1324.37,92.57,128.12
1324.87,92.48,128.00
1325.37,92.38,127.87
1325.87,92.28,127.74
1326.37,92.18,127.61
1326.87,92.08,127.48
1327.37,91.98,127.35
1327.87,91.88,127.22
1328.37,91.78,127.09
1328.87,91.68,126.96
1329.37,91.58,126.83
1329.87,91.48,126.70
1330.37,91.39,126.58
1330.87,91.29,126.45
1331.37,91.19,126.32
1331.87,91.09,126.19
1332.37,90.99,126.06
1332.87,90.89,125.93
1333.37,90.79,125.80
1333.87,90.69,125.67
1334.37,90.59,125.54
1334.87,90.49,125.41
1335.37,90.39,125.28
1335.87,90.29,125.15
1336.37,90.19,125.02
1336.87,90.09,124.89
1337.37,89.99,124.76
1337.87,89.89,124.63
1338.37,89.79,124.50
1338.87,89.69,124.37
1339.37,89.59,124.24
1339.87,89.49,124.11
1340.37,89.39,123.98
1340.87,89.29,123.85
1341.37,89.19,123.72
1341.87,89.09,123.59
1342.37,88.99,123.46
1342.87,88.89,123.33
1343.37,88.79,123.20
1343.87,88.69,123.07
1344.37,88.59,122.94
1344.87,88.49,122.81
1345.37,88.39,122.68
1345.87,88.29,122.55
1346.37,88.19,122.42
1346.87,88.09,122.29
1347.37,87.99,122.16
1347.87,87.89,122.03
1348.37,87.79,121.90
1348.87,87.68,121.76
1349.37,87.58,121.63
1349.87,87.48,121.50
1350.37,87.38,121.37
1350.87,87.28,121.24
1351.37,87.18,121.11
1351.87,87.08,120.98
1352.37,86.98,120.85
1352.87,86.88,120.72
1353.37,86.78,120.59
1353.87,86.67,120.45
1354.37,86.57,120.32
1354.87,86.47,120.19
1355.37,86.37,120.06
1355.87,86.27,119.93
1356.37,86.17,119.80
1356.87,86.07,119.67
1357.37,85.97,119.54
1357.87,85.86,119.40
1358.37,85.76,119.27
1358.87,85.66,119.14
1359.37,85.56,119.01
1359.87,85.46,118.88
1360.37,85.36,118.75
1360.87,85.25,118.61
1361.37,85.15,118.48
1361.87,85.05,118.35
1362.37,84.95,118.22
1362.87,84.85,118.09
1363.37,84.74,117.95
1363.87,84.64,117.82
1364.37,84.54,117.69
1364.87,84.44,117.56
1365.37,84.34,117.43
1365.87,84.23,117.29
1366.37,84.11,117.17
1366.87,84.01,117.04
1367.37,83.91,116.91
1367.87,83.80,116.77
1368.37,83.70,116.64
1368.87,83.60,116.51
1369.37,83.50,116.38
1369.87,83.39,116.24
1370.37,83.29,116.11
1370.87,83.19,115.98
1371.37,83.09,115.85
1371.87,82.98,115.71
1372.37,82.88,115.58
1372.87,82.78,115.45
1373.37,82.67,115.31
1373.87,82.57,115.18
1374.37,82.47,115.05
1374.87,82.37,114.92
1375.37,82.26,114.78
1375.87,82.16,114.65
1376.37,82.06,114.52
1376.87,81.95,114.38
1377.37,81.85,114.25
1377.87,81.75,114.12
1378.37,81.64,113.98
1378.87,81.54,113.85
1379.37,81.44,113.72
1379.87,81.33,113.58
1380.37,81.23,113.45
1380.87,81.10,113.32
1381.37,81.00,113.19
1381.87,80.90,113.06
1382.37,80.79,112.92
1382.87,80.69,112.79
1383.37,80.58,112.65
1383.87,80.48,112.52
1384.37,80.38,112.39
1384.87,80.27,112.25
1385.37,80.17,112.12
1385.87,80.06,111.98
1386.37,79.96,111.85
1386.87,79.86,111.72
1387.37,79.75,111.58
1387.87,79.65,111.45
1388.37,79.54,111.31
1388.87,79.44,111.18
1389.37,79.33,111.04
1389.87,79.23,110.91
1390.37,79.12,110.77
1390.87,79.02,110.64
1391.37,78.89,110.51
1391.87,78.79,110.38
1392.37,78.68,110.24
1392.87,78.58,110.11
1393.37,78.47,109.97
1393.87,78.37,109.84
1394.37,78.26,109.70
1394.87,78.16,109.57
1395.37,78.05,109.43
1395.87,77.95,109.30
1396.37,77.84,109.16
1396.87,77.74,109.03
1397.37,77.63,108.89
1397.87,77.52,108.75
1398.37,77.42,108.62
1398.87,77.31,108.48
1399.37,77.21,108.35
1399.87,77.08,108.22
1400.37,76.98,108.09
1400.87,76.87,107.95
1401.37,76.76,107.81
1401.87,76.66,107.68
1402.37,76.55,107.54
1402.87,76.45,107.41
1403.37,76.34,107.27
1403.87,76.23,107.13
1404.37,76.13,107.00
1404.87,76.02,106.86
1405.37,75.91,106.72
1405.87,75.81,106.59
1406.37,75.70,106.45
1406.87,75.59,106.31
1407.37,75.49,106.18
1407.87,75.36,106.05
1408.37,75.25,105.91
1408.87,75.15,105.78
1409.37,75.04,105.64
1409.87,74.93,105.50
1410.37,74.83,105.37
1410.87,74.72,105.23
1411.37,74.61,105.09
1411.87,74.50,104.95
1412.37,74.40,104.82
1412.87,74.29,104.68
1413.37,74.18,104.54
1413.87,74.07,104.40
1414.37,73.97,104.27
1414.87,73.84,104.14
1415.37,73.73,104.00
1415.87,73.62,103.86
1416.37,73.51,103.72
1416.87,73.41,103.59
1417.37,73.30,103.45
1417.87,73.19,103.31
1418.37,73.08,103.17
1418.87,72.97,103.03
1419.37,72.87,102.90
1419.87,72.76,102.76
1420.37,72.65,102.62
1420.87,72.54,102.48
1421.37,72.43,102.34
1421.87,72.30,102.21
1422.37,72.19,102.07
1422.87,72.09,101.94
1423.37,71.98,101.80
1423.87,71.87,101.66
1424.37,71.76,101.52
1424.87,71.65,101.38
1425.37,71.54,101.24
1425.87,71.43,101.10
1426.37,71.32,100.96
1426.87,71.21,100.82
1427.37,71.10,100.68
1427.87,70.99,100.54
1428.37,70.86,100.41
1428.87,70.76,100.28
1429.37,70.65,100.14
1429.87,70.54,100.00
1430.37,70.43,99.86
1430.87,70.32,99.72
1431.37,70.21,99.58
1431.87,70.10,99.44
1432.37,69.99,99.30
1432.87,69.88,99.16
1433.37,69.77,99.02
1433.87,69.66,98.88
1434.37,69.53,98.75
1434.87,69.42,98.61
1435.37,69.30,98.46
1435.87,69.19,98.32
1436.37,69.08,98.18
1436.87,68.97,98.04
1437.37,68.86,97.90
1437.87,68.75,97.76
1438.37,68.64,97.62
1438.87,68.53,97.48
1439.37,68.42,97.34
1439.87,68.31,97.20
1440.37,68.18,97.07
1440.87,68.06,96.92
1441.37,67.95,96.78
1441.87,67.84,96.64
1442.37,67.73,96.50
1442.87,67.62,96.36
1443.37,67.51,96.22
1443.87,67.40,96.08
1444.37,67.28,95.93
1444.87,67.17,95.79
1445.37,67.06,95.65
1445.87,66.93,95.52
1446.37,66.82,95.38
1446.87,66.70,95.23
1447.37,66.59,95.09
1447.87,66.48,94.95
1448.37,66.37,94.81
1448.87,66.25,94.66
1449.37,66.14,94.52
1449.87,66.03,94.38
1450.37,65.92,94.24
1450.87,65.80,94.09
1451.37,65.67,93.96
1451.87,65.56,93.82
1452.37,65.44,93.67
1452.87,65.33,93.53
1453.37,65.22,93.39
1453.87,65.10,93.24
1454.37,64.99,93.10
1454.87,64.88,92.96
1455.37,64.76,92.81
1455.87,64.65,92.67
1456.37,64.52,92.54
1456.87,64.40,92.39
1457.37,64.29,92.25
1457.87,64.18,92.11
1458.37,64.06,91.96
1458.87,63.95,91.82
1459.37,63.83,91.67
1459.87,63.72,91.53
1460.37,63.60,91.38
1460.87,63.49,91.24
1461.37,63.38,91.10
1461.87,63.24,90.96
1462.37,63.13,90.82
1462.87,63.01,90.67
1463.37,62.90,90.53
1463.87,62.78,90.38
1464.37,62.67,90.24
1464.87,62.55,90.09
1465.37,62.44,89.95
1465.87,62.32,89.80
1466.37,62.21,89.66
1466.87,62.07,89.52
1467.37,61.96,89.38
1467.87,61.84,89.23
1468.37,61.72,89.08
1468.87,61.61,88.94
1469.37,61.49,88.79
1469.87,61.38,88.65
1470.37,61.26,88.50
1470.87,61.15,88.36
1471.37,61.03,88.21
1471.87,60.89,88.07
1472.37,60.78,87.93
1472.87,60.66,87.78
1473.37,60.54,87.63
1473.87,60.43,87.49
1474.37,60.31,87.34
1474.87,60.19,87.19
1475.37,60.08,87.05
1475.87,59.96,86.90
1476.37,59.82,86.76
1476.87,59.71,86.62
1477.37,59.59,86.47
1477.87,59.47,86.32
1478.37,59.35,86.17
1478.87,59.24,86.03
1479.37,59.12,85.88
1479.87,59.00,85.73
1480.37,58.88,85.58
1480.87,58.77,85.44
1481.37,58.63,85.30
1481.87,58.51,85.15
1482.37,58.39,85.00
1482.87,58.27,84.85
1483.37,58.16,84.71
1483.87,58.04,84.56
1484.37,57.92,84.41
1484.87,57.80,84.26
1485.37,57.68,84.11
1485.87,57.56,83.96
1486.37,57.42,83.82
1486.87,57.31,83.68
1487.37,57.19,83.53
1487.87,57.07,83.38
1488.37,56.95,83.23
1488.87,56.83,83.08
1489.37,56.71,82.93
1489.87,56.59,82.78
1490.37,56.47,82.63
1490.87,56.33,82.49
1491.37,56.21,82.34
1491.87,56.09,82.19
1492.37,55.97,82.04
1492.87,55.85,81.89
1493.37,55.73,81.74
1493.87,55.61,81.59
1494.37,55.49,81.44
1494.87,55.37,81.29
1495.37,55.23,81.15
1495.87,55.11,81.00
1496.37,54.99,80.85
1496.87,54.87,80.70
1497.37,54.75,80.55
1497.87,54.63,80.40
1498.37,54.51,80.25
1498.87,54.39,80.10
1499.37,54.26,79.94
1499.87,54.12,79.80
1500.37,54.00,79.65
1500.87,53.88,79.50
1501.37,53.76,79.35
1501.87,53.64,79.20
1502.37,53.51,79.04
1502.87,53.39,78.89
1503.37,53.27,78.74
1503.87,53.15,78.59
1504.37,53.01,78.45
1504.87,52.88,78.29
1505.37,52.76,78.14
1505.87,52.64,77.99
1506.37,52.52,77.84
1506.87,52.39,77.68
1507.37,52.27,77.53
1507.87,52.15,77.38
1508.37,52.03,77.23
1508.87,51.88,77.08
1509.37,51.76,76.93
1509.87,51.64,76.78
1510.37,51.51,76.62
1510.87,51.39,76.47
1511.37,51.27,76.32
1511.87,51.14,76.16
1512.37,51.02,76.01
1512.87,50.89,75.85
1513.37,50.75,75.71
1513.87,50.63,75.56
1514.37,50.50,75.40
1514.87,50.38,75.25
1515.37,50.25,75.09
1515.87,50.13,74.94
1516.37,50.00,74.78
1516.87,49.88,74.63
1517.37,49.75,74.47
1517.87,49.61,74.33
1518.37,49.48,74.17
1518.87,49.36,74.02
1519.37,49.23,73.86
1519.87,49.11,73.71
1520.37,48.98,73.55
1520.87,48.86,73.40
1521.37,48.73,73.24
1521.87,48.61,73.09
1522.37,48.46,72.94
1522.87,48.33,72.78
1523.37,48.21,72.63
1523.87,48.08,72.47
1524.37,47.96,72.32
1524.87,47.83,72.16
1525.37,47.70,72.00
1525.87,47.58,71.85
1526.37,47.45,71.69
1526.87,47.30,71.54
1527.37,47.18,71.39
1527.87,47.05,71.23
1528.37,46.92,71.07
1528.87,46.79,70.91
1529.37,46.67,70.76
1529.87,46.54,70.60
1530.37,46.41,70.44
1530.87,46.28,70.28
1531.37,46.14,70.14
1531.87,46.01,69.98
1532.37,45.88,69.82
1532.87,45.75,69.66
1533.37,45.62,69.50
1533.87,45.50,69.35
1534.37,45.37,69.19
1534.87,45.24,69.03
1535.37,45.11,68.87
1535.87,44.96,68.72
1536.37,44.83,68.56
1536.87,44.70,68.40
1537.37,44.57,68.24
1537.87,44.44,68.08
1538.37,44.31,67.92
1538.87,44.18,67.76
1539.37,44.06,67.61
1539.87,43.91,67.46
1540.37,43.78,67.30
1540.87,43.65,67.14
1541.37,43.52,66.98
1541.87,43.39,66.82
1542.37,43.26,66.66
1542.87,43.12,66.49
1543.37,42.99,66.33
1543.87,42.86,66.17
1544.37,42.71,66.02
1544.87,42.58,65.86
1545.37,42.45,65.70
1545.87,42.32,65.54
1546.37,42.19,65.38
1546.87,42.06,65.22
1547.37,41.93,65.06
1547.87,41.79,64.89
1548.37,41.66,64.73
1548.87,41.51,64.58
1549.37,41.38,64.42
1549.87,41.25,64.26
1550.37,41.11,64.09
1550.87,40.98,63.93
1551.37,40.85,63.77
1551.87,40.72,63.61
1552.37,40.58,63.44
1552.87,40.43,63.29
1553.37,40.30,63.13
1553.87,40.16,62.96
1554.37,40.03,62.80
1554.87,39.90,62.64
1555.37,39.76,62.47
1555.87,39.63,62.31
1556.37,39.50,62.15
1556.87,39.36,61.98
1557.37,39.21,61.83
1557.87,39.07,61.66
1558.37,38.94,61.50
1558.87,38.81,61.34
1559.37,38.67,61.17
1559.87,38.54,61.01
1560.37,38.40,60.84
1560.87,38.27,60.68
1561.37,38.13,60.51
1561.87,37.98,60.36
1562.37,37.84,60.19
1562.87,37.71,60.03
1563.37,37.57,59.86
1563.87,37.44,59.70
1564.37,37.30,59.53
1564.87,37.16,59.36
1565.37,37.03,59.20
1565.87,36.87,59.04
1566.37,36.74,58.88
1566.87,36.60,58.71
1567.37,36.46,58.54
1567.87,36.33,58.38
1568.37,36.19,58.21
1568.87,36.05,58.04
1569.37,35.92,57.88
1569.87,35.78,57.71
1570.37,35.62,57.55
1570.87,35.48,57.38
1571.37,35.35,57.22
1571.87,35.21,57.05
1572.37,35.07,56.88
1572.87,34.93,56.71
1573.37,34.79,56.54
1573.87,34.66,56.38
1574.37,34.52,56.21
1574.87,34.36,56.05
1575.37,34.22,55.88
1575.87,34.08,55.71
1576.37,33.94,55.54
1576.87,33.80,55.37
1577.37,33.66,55.20
1577.87,33.52,55.03
1578.37,33.39,54.87
1578.87,33.23,54.71
1579.37,33.09,54.54
1579.87,32.95,54.37
1580.37,32.81,54.20
1580.87,32.67,54.03
1581.37,32.53,53.86
1581.87,32.38,53.68
1582.37,32.24,53.51
1582.87,32.10,53.34
1583.37,31.94,53.18
1583.87,31.80,53.01
1584.37,31.66,52.84
1584.87,31.52,52.67
1585.37,31.38,52.50
1585.87,31.24,52.33
1586.37,31.09,52.15
1586.87,30.95,51.98
1587.37,30.81,51.81
1587.87,30.65,51.65
1588.37,30.51,51.48
1588.87,30.36,51.30
1589.37,30.22,51.13
1589.87,30.08,50.96
1590.37,29.93,50.78
1590.87,29.79,50.61
1591.37,29.65,50.44
1591.87,29.48,50.27
1592.37,29.34,50.10
1592.87,29.20,49.93
1593.37,29.05,49.75
1593.87,28.91,49.58
1594.37,28.77,49.41
1594.87,28.62,49.23
1595.37,28.48,49.06
1595.87,28.33,48.88
1596.37,28.17,48.72
1596.87,28.02,48.54
1597.37,27.88,48.37
1597.87,27.73,48.19
1598.37,27.59,48.02
1598.87,27.44,47.84
1599.37,27.30,47.67
1599.87,27.15,47.49
1600.37,26.98,47.32
1600.87,26.84,47.15
1601.37,26.69,46.97
1601.87,26.55,46.80
1602.37,26.40,46.62
1602.87,26.25,46.44
1603.37,26.10,46.26
1603.87,25.96,46.09
1604.37,25.81,45.91
1604.87,25.64,45.74
1605.37,25.50,45.57
1605.87,25.35,45.39
1606.37,25.20,45.21
1606.87,25.05,45.03
1607.37,24.90,44.85
1607.87,24.76,44.68
1608.37,24.61,44.50
1608.87,24.44,44.33
1609.37,24.29,44.15
1609.87,24.14,43.97
1610.37,23.99,43.79
1610.87,23.84,43.61
1611.37,23.69,43.43
1611.87,23.54,43.25
1612.37,23.39,43.07
1612.87,23.24,42.89
1613.37,23.07,42.72
1613.87,22.92,42.54
1614.37,22.77,42.36
1614.87,22.62,42.18
1615.37,22.47,42.00
1615.87,22.32,41.82
1616.37,22.17,41.64
1616.87,22.02,41.46
1617.37,21.84,41.28
1617.87,21.69,41.10
1618.37,21.54,40.92
1618.87,21.39,40.74
1619.37,21.24,40.56
1619.87,21.08,40.37
1620.37,20.93,40.19
1620.87,20.78,40.01
1621.37,20.63,39.83
1621.87,20.45,39.65
1622.37,20.30,39.47
1622.87,20.14,39.28
1623.37,19.99,39.10
1623.87,19.84,38.92
1624.37,19.68,38.73
1624.87,19.53,38.55
1625.37,19.37,38.36
1625.87,19.20,38.19
1626.37,19.05,38.01
1626.87,18.89,37.82
1627.37,18.73,37.63
1627.87,18.58,37.45
1628.37,18.42,37.26
1628.87,18.27,37.08
1629.37,18.11,36.89
1629.87,17.94,36.72
1630.37,17.78,36.53
1630.87,17.62,36.34
1631.37,17.47,36.16
1631.87,17.31,35.97
1632.37,17.15,35.78
1632.87,16.99,35.59
1633.37,16.84,35.41
1633.87,16.68,35.22
1634.37,16.50,35.04
1634.87,16.34,34.85
1635.37,16.19,34.67
1635.87,16.03,34.48
1636.37,15.87,34.29
1636.87,15.71,34.10
1637.37,15.55,33.91
1637.87,15.39,33.72
1638.37,15.21,33.54
1638.87,15.05,33.35
1639.37,14.89,33.16
1639.87,14.73,32.97
1640.37,14.57,32.78
1640.87,14.41,32.59
1641.37,14.25,32.40
1641.87,14.09,32.21
1642.37,13.91,32.03
1642.87,13.75,31.84
1643.37,13.59,31.65
1643.87,13.42,31.45
1644.37,13.26,31.26
1644.87,13.10,31.07
1645.37,12.94,30.88
1645.87,12.75,30.69
1646.37,12.59,30.50
1646.87,12.43,30.31
1647.37,12.26,30.11
1647.87,12.10,29.92
1648.37,11.94,29.73
1648.87,11.77,29.53
1649.37,11.61,29.34
1649.87,11.42,29.15
1650.37,11.26,28.96
1650.87,11.09,28.76
1651.37,10.93,28.57
1651.87,10.76,28.37
1652.37,10.60,28.18
1652.87,10.43,27.98
1653.37,10.27,27.79
1653.87,10.08,27.60
1654.37,9.91,27.40
1654.87,9.75,27.21
1655.37,9.58,27.01
1655.87,9.41,26.81
1656.37,9.24,26.61
1656.87,9.08,26.42
1657.37,8.89,26.23
1657.87,8.72,26.03
1658.37,8.55,25.83
1658.87,8.38,25.63
1659.37,8.21,25.43
1659.87,8.04,25.23
1660.37,7.88,25.04
1660.87,7.69,24.85
1661.37,7.52,24.65
1661.87,7.34,24.44
1662.37,7.17,24.24
1662.87,7.00,24.04
1663.37,6.83,23.84
1663.87,6.66,23.64
1664.37,6.47,23.45
1664.87,6.30,23.25
1665.37,6.12,23.04
1665.87,5.95,22.84
1666.37,5.78,22.64
1666.87,5.61,22.44
1667.37,5.43,22.23
1667.87,5.24,22.04
1668.37,5.07,21.84
1668.87,4.89,21.63
1669.37,4.72,21.43
1669.87,4.54,21.22
1670.37,4.37,21.02
1670.87,4.17,20.82
1671.37,4.00,20.62
1671.87,3.82,20.41
1672.37,3.64,20.20
1672.87,3.47,20.00
1673.37,3.29,19.79
1673.87,3.09,19.59
1674.37,2.92,19.39
1674.87,2.74,19.18
1675.37,2.56,18.97
1675.87,2.38,18.76
1676.37,2.20,18.55
1676.87,2.00,18.35
1677.37,1.82,18.14
1677.87,1.64,17.93
1678.37,1.46,17.72
1678.87,1.28,17.51
1679.37,1.10,17.30
1679.87,0.90,17.10
1680.37,0.72,16.89
1680.87,0.54,16.68
1681.37,0.36,16.47
1681.87,0.17,16.25
1682.37,-0.03,16.05
1682.87,-0.21,15.84
1683.37,-0.40,15.62
1683.87,-0.58,15.41
1684.37,-0.77,15.19
1684.87,-0.95,14.98
1685.37,-1.16,14.77
1685.87,-1.34,14.56
1686.37,-1.53,14.34
1686.87,-1.71,14.13
1687.37,-1.90,13.91
1687.87,-2.11,13.70
1688.37,-2.30,13.48
1688.87,-2.48,13.27
1689.37,-2.67,13.05
1689.87,-2.86,12.83
1690.37,-3.07,12.62
1690.87,-3.26,12.40
1691.37,-3.45,12.18
1691.87,-3.64,11.96
1692.37,-3.85,11.75
1692.87,-4.04,11.53
1693.37,-4.24,11.30
1693.87,-4.43,11.08
1694.37,-4.62,10.86
1694.87,-4.83,10.65
1695.37,-5.03,10.42
1695.87,-5.22,10.20
1696.37,-5.42,9.97
1696.87,-5.63,9.76
1697.37,-5.83,9.53
1697.87,-6.02,9.31
1698.37,-6.22,9.08
1698.87,-6.44,8.86
1699.37,-6.64,8.63
1699.87,-6.84,8.40
1700.37,-7.03,8.18
1700.87,-7.25,7.96
1701.37,-7.45,7.73
1701.87,-7.66,7.49
1702.37,-7.88,7.27
1702.87,-8.08,7.04
1703.37,-8.28,6.81
1703.87,-8.49,6.57
1704.37,-8.71,6.35
1704.87,-8.91,6.12
1705.37,-9.12,5.88
1705.87,-9.34,5.66
1706.37,-9.55,5.42
1706.87,-9.76,5.18
1707.37,-9.99,4.95
1707.87,-10.19,4.72
1708.37,-10.40,4.48
1708.87,-10.63,4.25
1709.37,-10.85,4.00
1709.87,-11.06,3.76
1710.37,-11.29,3.53
1710.87,-11.50,3.29
1711.37,-11.72,3.04
1711.87,-11.95,2.81
1712.37,-12.17,2.56
1712.87,-12.38,2.32
1713.37,-12.62,2.08
1713.87,-12.84,1.83
1714.37,-13.08,1.59
1714.87,-13.30,1.34
1715.37,-13.54,1.10
1715.87,-13.76,0.85
1716.37,-13.99,0.59
1716.87,-14.23,0.35
1717.37,-14.45,0.10
1717.87,-14.70,-0.15
1718.37,-14.93,-0.41
1718.87,-15.18,-0.66
1719.37,-15.41,-0.92
1719.87,-15.66,-1.17
1720.37,-15.89,-1.43
1720.87,-16.14,-1.68
1721.37,-16.38,-1.95
1721.87,-16.64,-2.21
1722.37,-16.87,-2.47
1722.87,-17.13,-2.73
1723.37,-17.38,-3.01
1723.87,-17.64,-3.27
1724.37,-17.91,-3.54
1724.87,-18.17,-3.83
1725.37,-18.46,-4.12
1725.87,-18.84,-4.47
1726.37,-20.16,-5.55
1726.87,-22.81,-7.60
1727.37,-19.73,-5.36
1727.87,-19.81,-5.50
1728.37,-20.03,-5.75
1728.87,-20.29,-6.01
1729.37,-20.55,-6.30
1729.87,-20.82,-6.57
1730.37,-21.11,-6.86
1730.87,-21.37,-7.15
1731.37,-21.66,-7.44
1731.87,-21.95,-7.73
1732.37,-22.24,-8.02
1732.87,-22.54,-8.32
1733.37,-22.84,-8.62
1733.87,-23.14,-8.92
1734.37,-23.44,-9.22
1734.87,-23.75,-9.53
1735.37,-24.06,-9.84
1735.87,-24.37,-10.15
1736.37,-24.69,-10.47
1736.87,-25.01,-10.79
1737.37,-25.33,-11.11
1737.87,-25.66,-11.44
1738.37,-25.99,-11.77
1738.87,-26.35,-12.10
1739.37,-26.69,-12.44
1739.87,-27.03,-12.78
1740.37,-27.38,-13.13
1740.87,-27.75,-13.47
1741.37,-28.11,-13.83
1741.87,-28.50,-14.19
1742.37,-28.87,-14.56
1742.87,-29.26,-14.92
1743.37,-29.66,-15.29
1743.87,-30.05,-15.68
1744.37,-30.47,-16.07
1744.87,-30.89,-16.46
1745.37,-31.32,-16.86
1745.87,-31.76,-17.27
1746.37,-32.20,-17.68
1746.87,-32.66,-18.11
1747.37,-33.14,-18.53
1747.87,-33.62,-18.98
1748.37,-34.12,-19.42
1748.87,-34.62,-19.89
1749.37,-35.15,-20.36
1749.87,-35.70,-20.85
1750.37,-36.25,-21.34
1750.87,-36.83,-21.86
1751.37,-37.41,-22.38
1751.87,-38.04,-22.92
1752.37,-38.67,-23.49
1752.87,-39.33,-24.06
1753.37,-40.02,-24.66
1753.87,-40.75,-25.27
1754.37,-41.49,-25.92
1754.87,-42.27,-26.58
1755.37,-43.09,-27.28
1755.87,-43.96,-28.00
1756.37,-44.87,-28.76
1756.87,-45.82,-29.56
1757.37,-46.83,-30.39
1757.87,-47.90,-31.28
1758.37,-49.04,-32.21
1758.87,-50.25,-33.21
1759.37,-51.54,-34.26
1759.87,-52.94,-35.39
1760.37,-54.45,-36.60
1760.87,-56.08,-37.90
1761.37,-57.85,-39.31
1761.87,-59.78,-40.85
1762.37,-61.91,-42.53
1762.87,-64.28,-44.39
1763.37,-66.93,-46.44
1763.87,-69.89,-48.74
1764.37,-73.24,-51.34
1764.87,-77.07,-54.30
1765.37,-81.51,-57.72
1765.87,-86.74,-61.72
1766.37,-92.96,-66.47
1766.87,-100.54,-72.22
1767.37,-109.93,-79.36
1767.87,-121.98,-88.47
1768.37,-137.98,-100.54
1768.87,-160.29,-117.36
1769.37,-193.66,-142.48
1769.87,-249.17,-184.19
1770.37,-360.03,-267.42
1770.87,-692.65,-516.97
1770.92,-766.63,-572.47
1770.97,-859.15,-641.86
1771.02,-978.17,-731.12
1771.07,-1136.97,-850.23
1771.12,-1359.52,-1017.16
1771.17,-1693.89,-1267.95
1771.22,-2252.59,-1686.97
1771.27,-3375.35,-2529.05
1771.307,,-4025.97
1771.315,,-4619.12
1771.3690000000001,NaN,NaN
1771.379,NaN,NaN
1771.423,,4588.42
1771.431,,3993.49
1771.439,4709.60,3534.62
1771.447,4223.35,3169.93
1771.455,3827.61,2873.13
1771.505,2409.39,1809.45
1771.555,1753.82,1317.77
1771.605,1376.07,1034.46
1771.655,1130.41,850.21
1771.705,957.88,720.79
1771.755,830.05,624.91
1771.805,731.52,551.01
1771.855,653.27,492.32
1772.355,307.17,232.65
1772.855,193.84,147.58
1773.355,137.47,105.22
1773.855,103.71,79.80
1774.355,81.19,62.83
1774.855,65.06,50.66
1775.355,52.93,41.47
1775.855,43.47,34.29
1776.355,35.85,28.50
1776.855,29.60,23.72
1777.355,24.35,19.70
1777.855,19.86,16.26
1778.355,16.01,13.28
1778.855,12.65,10.67
1779.355,9.67,8.35
1779.855,7.01,6.29
1780.355,4.63,4.42
1780.855,2.49,2.73
1781.355,0.54,1.17
1781.855,-1.24,-0.25
1782.355,-2.89,-1.57
1782.855,-4.41,-2.79
1783.355,-5.82,-3.93
1783.855,-7.13,-5.00
1784.355,-8.36,-5.99
1784.855,-9.50,-6.95
1785.355,-10.60,-7.84
1785.855,-11.61,-8.70
1786.355,-12.59,-9.50
1786.855,-13.50,-10.29
1787.355,-14.38,-11.02
1787.855,-15.21,-11.73
1788.355,-16.02,-12.42
1788.855,-16.77,-13.08
1789.355,-17.52,-13.71
1789.855,-18.22,-14.32
1790.355,-18.89,-14.93
1790.855,-19.55,-15.50
1791.355,-20.18,-16.07
1791.855,-20.80,-16.60
1792.355,-21.40,-17.14
1792.855,-21.97,-17.65
1793.355,-22.54,-18.16
1793.855,-23.07,-18.66
1794.355,-23.61,-19.14
1794.855,-24.11,-19.61
1795.355,-24.61,-20.08
1795.855,-25.12,-20.53
1796.355,-25.60,-20.98
1796.855,-26.07,-21.42
1797.355,-26.53,-21.85
1797.855,-26.98,-22.27
1798.355,-27.41,-22.70
1798.855,-27.85,-23.11
1799.355,-28.28,-23.51
1799.855,-28.69,-23.92
1800.355,-29.11,-24.31
1800.855,-29.51,-24.71
1801.355,-29.92,-25.09
1801.855,-30.31,-25.48
1802.355,-30.71,-25.85
1802.855,-31.09,-26.23
1803.355,-31.46,-26.60
1803.855,-31.83,-26.97
1804.355,-32.20,-27.34
1804.855,-32.58,-27.69
1805.355,-32.94,-28.05
1805.855,-33.29,-28.40
1806.355,-33.65,-28.76
1806.855,-34.00,-29.11
1807.355,-34.34,-29.45
1807.855,-34.67,-29.81
1808.355,-35.01,-30.15
1808.855,-35.35,-30.49
1809.355,-35.68,-30.82
1809.855,-36.02,-31.16
1810.355,-36.35,-31.49
1810.855,-36.66,-31.83
1811.355,-36.99,-32.16
1811.855,-37.31,-32.48
1812.355,-37.62,-32.82
1812.855,-37.94,-33.14
1813.355,-38.26,-33.46
1813.855,-38.56,-33.79
1814.355,-38.88,-34.11
1814.855,-39.17,-34.43
1815.355,-39.49,-34.75
1815.855,-39.80,-35.06
1816.355,-40.09,-35.38
1816.855,-40.40,-35.69
1817.355,-40.69,-36.01
1817.855,-41.00,-36.32
1818.355,-41.29,-36.64
1818.855,-41.58,-36.96
1819.355,-41.88,-37.26
1819.855,-42.17,-37.58
1820.355,-42.47,-37.88
1820.855,-42.75,-38.19
1821.355,-43.05,-38.49
1821.855,-43.33,-38.80
1822.355,-43.61,-39.11
1822.855,-43.91,-39.41
1823.355,-44.19,-39.72
1823.855,-44.47,-40.03
1824.355,-44.77,-40.33
1824.855,-45.04,-40.63
1825.355,-45.32,-40.94
1825.855,-45.61,-41.23
1826.355,-45.89,-41.54
1826.855,-46.16,-41.84
1827.355,-46.44,-42.15
1827.855,-46.73,-42.44
1828.355,-47.00,-42.74
1828.855,-47.27,-43.04
1829.355,-47.55,-43.35
1829.855,-47.84,-43.64
1830.355,-48.11,-43.94
1830.855,-48.38,-44.24
1831.355,-48.65,-44.54
1831.855,-48.92,-44.84
1832.355,-49.21,-45.13
1832.855,-49.48,-45.43
1833.355,-49.75,-45.73
1833.855,-50.01,-46.02
1834.355,-50.28,-46.32
1834.855,-50.55,-46.62
1835.355,-50.82,-46.92
1835.855,-51.11,-47.21
1836.355,-51.37,-47.50
1836.855,-51.64,-47.80
1837.355,-51.91,-48.10
1837.855,-52.17,-48.39
1838.355,-52.44,-48.69
1838.855,-52.71,-48.99
1839.355,-52.97,-49.28
1839.855,-53.24,-49.58
1840.355,-53.52,-49.86
1840.855,-53.79,-50.16
1841.355,-54.05,-50.45
1841.855,-54.32,-50.75
1842.355,-54.58,-51.04
1842.855,-54.85,-51.34
1843.355,-55.12,-51.64
1843.855,-55.38,-51.93
1844.355,-55.65,-52.23
1844.855,-55.91,-52.52
1845.355,-56.18,-52.82
1845.855,-56.44,-53.11
1846.355,-56.70,-53.40
1846.855,-56.97,-53.70
1847.355,-57.23,-53.99
1847.855,-57.50,-54.29
1848.355,-57.76,-54.58
1848.855,-58.03,-54.88
1849.355,-58.29,-55.17
1849.855,-58.56,-55.47
1850.355,-58.82,-55.76
1850.855,-59.09,-56.06
1851.355,-59.35,-56.35
1851.855,-59.62,-56.65
1852.355,-59.88,-56.94
1852.855,-60.15,-57.24
1853.355,-60.41,-57.53
1853.855,-60.68,-57.83
1854.355,-60.94,-58.12
1854.855,-61.21,-58.42
1855.355,-61.47,-58.71
1855.855,-61.74,-59.01
1856.355,-62.00,-59.30
1856.855,-62.27,-59.60
1857.355,-62.53,-59.89
1857.855,-62.80,-60.19
1858.355,-63.07,-60.49
1858.855,-63.33,-60.78
1859.355,-63.60,-61.08
1859.855,-63.86,-61.37
1860.355,-64.11,-61.68
1860.855,-64.38,-61.98
1861.355,-64.64,-62.27
1861.855,-64.91,-62.57
1862.355,-65.18,-62.87
1862.855,-65.44,-63.16
1863.355,-65.71,-63.46
1863.855,-65.98,-63.76
1864.355,-66.24,-64.05
1864.855,-66.51,-64.35
1865.355,-66.78,-64.65
1865.855,-67.03,-64.96
1866.355,-67.29,-65.25
1866.855,-67.56,-65.55
1867.355,-67.83,-65.85
1867.855,-68.10,-66.15
1868.355,-68.37,-66.45
1868.855,-68.64,-66.75
1869.355,-68.91,-67.05
1869.855,-69.17,-67.34
1870.355,-69.42,-67.65
1870.855,-69.69,-67.95
1871.355,-69.96,-68.25
1871.855,-70.23,-68.55
1872.355,-70.50,-68.85
1872.855,-70.77,-69.15
1873.355,-71.04,-69.45
1873.855,-71.29,-69.76
1874.355,-71.56,-70.06
1874.855,-71.84,-70.37
1875.355,-72.11,-70.67
1875.855,-72.38,-70.97
1876.355,-72.65,-71.27
1876.855,-72.92,-71.57
1877.355,-73.17,-71.88
1877.855,-73.45,-72.19
1878.355,-73.72,-72.49
1878.855,-73.99,-72.79
1879.355,-74.26,-73.09
1879.855,-74.54,-73.40
1880.355,-74.79,-73.71
1880.855,-75.06,-74.01
1881.355,-75.34,-74.32
1881.855,-75.61,-74.62
1882.355,-75.89,-74.93
1882.855,-76.14,-75.24
1883.355,-76.42,-75.55
1883.855,-76.69,-75.85
1884.355,-76.97,-76.16
1884.855,-77.24,-76.46
1885.355,-77.52,-76.77
1885.855,-77.77,-77.08
1886.355,-78.05,-77.39
1886.855,-78.33,-77.70
1887.355,-78.60,-78.00
1887.855,-78.88,-78.31
1888.355,-79.14,-78.63
1888.855,-79.41,-78.93
1889.355,-79.69,-79.24
1889.855,-79.97,-79.55
1890.355,-80.23,-79.87
1890.855,-80.51,-80.18
1891.355,-80.79,-80.49
1891.855,-81.07,-80.80
1892.355,-81.35,-81.11
1892.855,-81.61,-81.43
1893.355,-81.89,-81.74
1893.855,-82.17,-82.05
1894.355,-82.45,-82.36
1894.855,-82.71,-82.68
1895.355,-82.99,-82.99
1895.855,-83.27,-83.30
1896.355,-83.55,-83.61
1896.855,-83.83,-83.92
1897.355,-84.10,-84.25
1897.855,-84.38,-84.56
1898.355,-84.66,-84.87
1898.855,-84.94,-85.18
1899.355,-85.21,-85.51
1899.855,-85.49,-85.82
1900.355,-85.78,-86.14
1900.855,-86.06,-86.45
1901.355,-86.33,-86.78
1901.855,-86.61,-87.09
1902.355,-86.90,-87.41
1902.855,-87.16,-87.73
1903.355,-87.45,-88.05
1903.855,-87.73,-88.36
1904.355,-88.02,-88.68
1904.855,-88.29,-89.01
1905.355,-88.57,-89.32
1905.855,-88.86,-89.64
1906.355,-89.15,-89.96
1906.855,-89.42,-90.29
1907.355,-89.71,-90.61
1907.855,-89.99,-90.92
1908.355,-90.26,-91.25
1908.855,-90.55,-91.57
1909.355,-90.84,-91.89
1909.855,-91.13,-92.21
1910.355,-91.40,-92.54
1910.855,-91.69,-92.86
1911.355,-91.99,-93.19
1911.855,-92.26,-93.52
1912.355,-92.55,-93.84
1912.855,-92.84,-94.16
1913.355,-93.13,-94.48
1913.855,-93.41,-94.82
1914.355,-93.70,-95.14
1914.855,-93.99,-95.46
1915.355,-94.27,-95.80
1915.855,-94.56,-96.12
1916.355,-94.85,-96.44
1916.855,-95.13,-96.78
1917.355,-95.42,-97.10
1917.855,-95.72,-97.43
1918.355,-96.00,-97.77
1918.855,-96.29,-98.09
1919.355,-96.59,-98.42
1919.855,-96.88,-98.74
1920.355,-97.16,-99.08
1920.855,-97.46,-99.41
1921.355,-97.76,-99.74
1921.855,-98.04,-100.08
1922.355,-98.33,-100.40
1922.855,-98.63,-100.73
1923.355,-98.91,-101.07
1923.855,-99.21,-101.40
1924.355,-99.51,-101.73
1924.855,-99.79,-102.07
1925.355,-100.09,-102.40
1925.855,-100.39,-102.73
1926.355,-100.68,-103.08
1926.855,-100.98,-103.41
1927.355,-101.26,-103.75
1927.855,-101.56,-104.08
1928.355,-101.87,-104.42
1928.855,-102.15,-104.76
1929.355,-102.45,-105.09
1929.855,-102.76,-105.43
1930.355,-103.04,-105.77
1930.855,-103.35,-106.11
1931.355,-103.65,-106.44
1931.855,-103.94,-106.79
1932.355,-104.24,-107.12
1932.855,-104.55,-107.46
1933.355,-104.84,-107.81
1933.855,-105.14,-108.14
1934.355,-105.43,-108.49
1934.855,-105.74,-108.83
1935.355,-106.05,-109.17
1935.855,-106.34,-109.52
1936.355,-106.65,-109.86
1936.855,-106.96,-110.20
1937.355,-107.25,-110.55
1937.855,-107.56,-110.89
1938.355,-107.85,-111.24
1938.855,-108.16,-111.58
1939.355,-108.47,-111.92
1939.855,-108.76,-112.27
1940.355,-109.07,-112.61
1940.855,-109.37,-112.97
1941.355,-109.68,-113.31
1941.855,-109.99,-113.65
1942.355,-110.29,-114.01
1942.855,-110.60,-114.35
1943.355,-110.89,-114.70
1943.855,-111.21,-115.05
1944.355,-111.53,-115.40
1944.855,-111.82,-115.75
1945.355,-112.14,-116.10
1945.855,-112.43,-116.45
1946.355,-112.75,-116.80
1946.855,-113.07,-117.15
1947.355,-113.37,-117.51
1947.855,-113.68,-117.85
1948.355,-113.98,-118.21
1948.855,-114.30,-118.56
1949.355,-114.62,-118.91
1949.855,-114.92,-119.27
1950.355,-115.24,-119.62
1950.855,-115.54,-119.98
1951.355,-115.86,-120.33
1951.855,-116.17,-120.70
1952.355,-116.49,-121.05
1952.855,-116.81,-121.40
1953.355,-117.11,-121.76
1953.855,-117.44,-122.12
1954.355,-117.74,-122.48
1954.855,-118.07,-122.84
1955.355,-118.37,-123.20
1955.855,-118.70,-123.56
1956.355,-119.00,-123.92
1956.855,-119.33,-124.28
1957.355,-119.65,-124.63
1957.855,-119.96,-125.00
1958.355,-120.29,-125.36
1958.855,-120.60,-125.73
1959.355,-120.92,-126.08
1959.855,-121.23,-126.45
1960.355,-121.56,-126.81
1960.855,-121.87,-127.18
1961.355,-122.20,-127.54
1961.855,-122.51,-127.91
1962.355,-122.84,-128.27
1962.855,-123.15,-128.64
1963.355,-123.49,-129.01
1963.855,-123.82,-129.37
1964.355,-124.13,-129.74
1964.855,-124.46,-130.10
1965.355,-124.78,-130.48
1965.855,-125.11,-130.84
1966.355,-125.43,-131.22
1966.855,-125.76,-131.58
1967.355,-126.08,-131.96
1967.855,-126.41,-132.32
1968.355,-126.73,-132.70
1968.855,-127.06,-133.06
1969.355,-127.38,-133.44
1969.855,-127.72,-133.81
1970.355,-128.04,-134.19
1970.855,-128.38,-134.56
1971.355,-128.70,-134.94
1971.855,-129.03,-135.30
1972.355,-129.35,-135.68
1972.855,-129.70,-136.06
1973.355,-130.02,-136.44
1973.855,-130.36,-136.81
1974.355,-130.68,-137.19
1974.855,-131.02,-137.56
1975.355,-131.34,-137.94
1975.855,-131.69,-138.32
1976.355,-132.01,-138.70
1976.855,-132.36,-139.08
1977.355,-132.68,-139.46
1977.855,-133.03,-139.84
1978.355,-133.35,-140.22
1978.855,-133.70,-140.60
1979.355,-134.03,-140.99
1979.855,-134.37,-141.36
1980.355,-134.70,-141.75
1980.855,-135.03,-142.14
1981.355,-135.38,-142.52
1981.855,-135.71,-142.91
1982.355,-136.06,-143.29
1982.855,-136.39,-143.68
1983.355,-136.74,-144.06
1983.855,-137.07,-144.45
1984.355,-137.42,-144.83
1984.855,-137.75,-145.22
1985.355,-138.10,-145.60
1985.855,-138.44,-146.00
1986.355,-138.77,-146.39
1986.855,-139.13,-146.78
1987.355,-139.46,-147.17
1987.855,-139.81,-147.55
1988.355,-140.15,-147.95
1988.855,-140.51,-148.34
1989.355,-140.84,-148.73
1989.855,-141.20,-149.12
1990.355,-141.54,-149.52
1990.855,-141.88,-149.92
1991.355,-142.24,-150.31
1991.855,-142.57,-150.70
1992.355,-142.93,-151.09
1992.855,-143.27,-151.49
1993.355,-143.64,-151.89
1993.855,-143.98,-152.29
1994.355,-144.32,-152.69
1994.855,-144.68,-153.08
1995.355,-145.02,-153.48
1995.855,-145.39,-153.88
1996.355,-145.73,-154.28
1996.855,-146.08,-154.69
1997.355,-146.44,-155.08
1997.855,-146.79,-155.49
1998.355,-147.15,-155.88
1998.855,-147.50,-156.29
1999.355,-147.87,-156.69
417.7165,NaN,
417.7175,NaN,
436.21,-424.92,
436.22,-425.11,
436.23,-425.31,
436.24,-425.51,
436.25,-425.71,
436.26,-425.91,
436.27,-426.11,
436.28,-426.30,
436.29,-426.50,
436.3,-426.69,
436.31,-426.90,
436.32,-427.10,
436.33,-427.29,
436.34,-427.50,
436.35,-427.71,
436.36,-427.89,
436.37,-428.11,
436.38,-428.30,
436.39,-428.51,
436.4,-428.71,
441.38750000000005,NaN,
441.3905,NaN,
477.75,-1970.42,
477.85,-2038.07,
477.95,-2106.74,
478.05,-2176.55,
478.15,-2247.64,
478.25,-2320.14,
478.35,-2394.18,
478.36,-2401.68,
478.38,-2416.73,
478.4,-2431.85,
478.42,-2447.03,
478.44,-2462.27,
478.46,-2477.60,
478.48,-2493.01,
478.5,-2508.48,
478.52,-2524.03,
478.54,-2539.66,
478.56,-2555.38,
478.57,-2563.27,
478.59,-2579.10,
478.61,-2595.01,
478.63,-2611.01,
478.65,-2627.10,
478.67,-2643.28,
478.69,-2659.55,
478.71,-2675.90,
478.73,-2692.35,
478.75,-2708.89,
478.77,-2725.52,
478.87,-2810.17,
478.97,-2897.43,
479.07,-2987.53,
479.17,-3080.68,
479.27,-3177.19,
479.37,-3277.31,
483.345,NaN,
483.385,NaN,
485.91,-1085.17,
621.60095,NaN,
621.6013499999999,NaN,
684.2886,274.81,
684.7886,276.10,
685.2886,277.78,
685.7886,280.02,
686.2886,283.07,
686.7886,287.42,
687.2886,293.95,
687.38,295.50,
687.47,297.17,
687.56,299.02,
687.65,301.05,
687.69,302.04,
687.73,303.04,
687.77,304.12,
687.81,305.25,
687.85,306.43,
687.89,307.67,
687.93,308.99,
687.97,310.36,
688.01,311.82,
688.03,312.59,
688.07,314.18,
688.11,315.87,
688.15,317.65,
688.19,319.57,
688.23,321.62,
688.27,323.79,
688.31,326.11,
688.35,328.62,
688.39,331.31,
688.43,334.22,
688.52,341.71,
688.61,350.79,
688.71,363.51,
688.81,380.22,
688.91,403.15,
689.01,436.59,
689.03,445.19,
689.08,470.79,
689.13,504.40,
689.18,550.54,
689.23,617.74,
689.28,724.72,
689.33,921.53,
689.38,1403.24,
689.4,1870.67,
689.41,2283.69,
689.42,2980.61,
689.43,4407.37,
689.4490000000001,NaN,
689.454,NaN,
689.465,-4730.66,
689.47,-3537.85,
689.48,-2310.24,
689.49,-1682.91,
689.5,-1302.06,
689.52,-862.67,
689.57,-400.22,
689.62,-208.39,
689.67,-103.41,
689.72,-37.20,
689.77,8.38,
689.82,41.65,
689.87,67.02,
689.92,86.99,
689.97,103.11,
690.07,127.55,
690.17,145.20,
690.27,158.52,
690.37,168.93,
690.87,198.88,
691.37,213.06,
691.87,221.24,
